* Measurement data measured by REW V5.30 beta 3
* Source: ASIO ASIO4ALL v2, EPOS GSX 300 1. Timing signal peak level -10.4 dBFS, measurement signal peak level -10.4 dBFS
* Format: 256k Log Swept Sine, 1 sweep at -14.5 dBFS using an acoustic timing reference
* Dated: 2023. 11. 28 ¿ÀÀü 12:37:33
* REW Settings:
*  C-weighting compensation: Off
*  Target level: 75.0 dB
* Note: FAKE DIY XELENTO - measured with IEC 60318-4 - by SilicaGel; Delay -0.0670 ms (-23 mm, -0.9 in) using estimated IR delay relative to Acoustic reference played from 1: EPOS GSX 300 1 with no timing offset
* Measurement: L Default Tip
* Smoothing: 1/24 octave
* Frequency Step: 1/48 octave
* Start Frequency: 1.000 Hz
*
* Freq(Hz)	SPL(dB)	Phase(degrees)
1.000000	54.521	-100.6899
1.015000	54.787	-101.8533
1.030000	55.051	-102.9911
1.044000	55.295	-104.0315
1.060000	55.571	-105.1966
1.075000	55.824	-106.2672
1.090000	56.073	-107.3172
1.106000	56.334	-108.4098
1.120000	56.562	-109.3337
1.138000	56.856	-110.4733
1.150000	57.053	-111.2043
1.172000	57.414	-112.4900
1.180000	57.546	-112.9413
1.206000	57.975	-114.3545
1.220000	58.206	-115.0845
1.241000	58.553	-116.1432
1.250000	58.701	-116.5848
1.265000	58.948	-117.3060
1.280000	59.194	-118.0102
1.315000	59.765	-119.5950
1.320000	59.846	-119.8155
1.340000	60.168	-120.6845
1.360000	60.488	-121.5347
1.380000	60.804	-122.3684
1.400000	61.117	-123.1877
1.430000	61.577	-124.3937
1.450000	61.879	-125.1837
1.475000	62.249	-126.1489
1.500000	62.613	-127.0698
1.525000	62.972	-127.9429
1.550000	63.326	-128.7758
1.575000	63.676	-129.5762
1.600000	64.021	-130.3512
1.625000	64.362	-131.1068
1.650000	64.698	-131.8482
1.675000	65.030	-132.5801
1.700000	65.358	-133.3063
1.725000	65.682	-134.0302
1.750000	66.002	-134.7548
1.775000	66.319	-135.4825
1.800000	66.632	-136.2149
1.825000	66.941	-136.9515
1.850000	67.246	-137.6834
1.875000	67.547	-138.3992
1.900000	67.843	-139.0966
1.925000	68.135	-139.7779
1.950000	68.423	-140.4456
1.975000	68.707	-141.1025
2.000000	68.988	-141.7507
2.030000	69.319	-142.5201
2.060000	69.646	-143.2834
2.090000	69.968	-144.0438
2.120000	70.285	-144.8039
2.140000	70.495	-145.3116
2.180000	70.909	-146.3314
2.200000	71.113	-146.8421
2.240000	71.515	-147.8521
2.270000	71.811	-148.5939
2.300000	72.101	-149.3232
2.330000	72.388	-150.0422
2.360000	72.669	-150.7530
2.400000	73.039	-151.6911
2.430000	73.311	-152.3901
2.470000	73.668	-153.3192
2.500000	73.932	-154.0158
2.540000	74.279	-154.9466
2.580000	74.621	-155.8779
2.620000	74.955	-156.8005
2.650000	75.201	-157.4842
2.690000	75.524	-158.3854
2.720000	75.761	-159.0546
2.760000	76.073	-159.9395
2.800000	76.378	-160.8177
2.850000	76.753	-161.9091
2.900000	77.121	-162.9968
2.950000	77.481	-164.0814
3.000000	77.832	-165.1573
3.040000	78.107	-166.0094
3.070000	78.309	-166.6434
3.110000	78.575	-167.4820
3.150000	78.836	-168.3136
3.200000	79.156	-169.3441
3.250000	79.470	-170.3659
3.300000	79.778	-171.3803
3.350000	80.080	-172.3871
3.400000	80.374	-173.3848
3.450000	80.661	-174.3723
3.500000	80.943	-175.3492
3.550000	81.218	-176.3156
3.600000	81.489	-177.2717
3.650000	81.754	-178.2180
3.700000	82.015	-179.1559
3.750000	82.270	179.9142
3.820000	82.617	178.6271
3.870000	82.860	177.7193
3.950000	83.238	176.2881
4.000000	83.469	175.4072
4.060000	83.742	174.3625
4.120000	84.008	173.3294
4.180000	84.267	172.3081
4.250000	84.563	171.1326
4.310000	84.811	170.1395
4.370000	85.054	169.1599
4.440000	85.332	168.0324
4.500000	85.564	167.0776
4.550000	85.754	166.2899
4.620000	86.015	165.2003
4.680000	86.233	164.2788
4.750000	86.484	163.2185
4.820000	86.729	162.1724
4.870000	86.900	161.4328
4.940000	87.136	160.4081
5.000000	87.334	159.5404
5.080000	87.592	158.3989
5.150000	87.813	157.4139
5.220000	88.030	156.4401
5.300000	88.272	155.3401
5.380000	88.508	154.2549
5.450000	88.710	153.3180
5.520000	88.908	152.3924
5.600000	89.130	151.3460
5.700000	89.400	150.0554
5.800000	89.662	148.7860
5.900000	89.917	147.5378
6.000000	90.165	146.3074
6.080000	90.358	145.3359
6.150000	90.524	144.4964
6.220000	90.686	143.6670
6.300000	90.868	142.7301
6.400000	91.090	141.5736
6.500000	91.306	140.4350
6.600000	91.516	139.3157
6.700000	91.720	138.2137
6.800000	91.920	137.1274
6.900000	92.114	136.0583
7.000000	92.304	135.0065
7.100000	92.489	133.9699
7.200000	92.669	132.9481
7.300000	92.845	131.9418
7.400000	93.017	130.9500
7.500000	93.186	129.9714
7.620000	93.382	128.8144
7.750000	93.590	127.5817
7.880000	93.791	126.3684
8.000000	93.972	125.2654
8.120000	94.148	124.1782
8.250000	94.333	123.0165
8.380000	94.513	121.8723
8.500000	94.675	120.8314
8.620000	94.832	119.8040
8.750000	94.997	118.7076
8.850000	95.121	117.8765
9.000000	95.302	116.6480
9.120000	95.442	115.6824
9.250000	95.590	114.6540
9.380000	95.734	113.6428
9.500000	95.864	112.7253
9.620000	95.992	111.8229
9.750000	96.126	110.8612
9.880000	96.252	109.9151
10.000000	96.361	109.0551
10.150000	96.487	107.9961
10.300000	96.606	106.9530
10.440000	96.711	105.9922
10.600000	96.827	104.9077
10.750000	96.933	103.9023
10.900000	97.036	102.9078
11.060000	97.143	101.8595
11.200000	97.233	100.9526
11.380000	97.344	99.8047
11.500000	97.415	99.0512
11.720000	97.541	97.6980
11.800000	97.585	97.2161
12.060000	97.723	95.6876
12.200000	97.795	94.8893
12.410000	97.904	93.7215
12.500000	97.953	93.2308
12.650000	98.038	92.4247
12.800000	98.125	91.6301
13.150000	98.326	89.8072
13.200000	98.355	89.5493
13.400000	98.465	88.5224
13.600000	98.572	87.5049
13.800000	98.674	86.4993
14.000000	98.771	85.5126
14.300000	98.908	84.0807
14.500000	98.994	83.1662
14.750000	99.099	82.0699
15.000000	99.203	81.0193
15.250000	99.308	79.9986
15.500000	99.415	78.9872
15.750000	99.521	77.9678
16.000000	99.625	76.9289
16.250000	99.725	75.8725
16.500000	99.816	74.8100
16.750000	99.896	73.7612
17.000000	99.967	72.7477
17.250000	100.029	71.7850
17.500000	100.088	70.8810
17.750000	100.145	70.0322
18.000000	100.203	69.2263
18.250000	100.263	68.4469
18.500000	100.326	67.6780
18.750000	100.388	66.9094
19.000000	100.450	66.1367
19.250000	100.509	65.3625
19.500000	100.565	64.5928
19.750000	100.618	63.8336
20.000000	100.669	63.0894
20.299999	100.728	62.2170
20.600000	100.787	61.3637
20.900000	100.844	60.5238
21.200001	100.900	59.6933
21.400000	100.936	59.1443
21.799999	101.006	58.0598
22.000000	101.040	57.5258
22.400000	101.104	56.4763
22.700001	101.151	55.7057
23.000000	101.196	54.9489
23.299999	101.239	54.2066
23.600000	101.280	53.4809
24.000000	101.332	52.5428
24.299999	101.370	51.8625
24.700001	101.420	50.9821
25.000000	101.457	50.3364
25.400000	101.506	49.4872
25.799999	101.552	48.6478
26.200001	101.596	47.8212
26.500000	101.626	47.2133
26.900000	101.663	46.4227
27.200001	101.690	45.8446
27.600000	101.725	45.0907
28.000000	101.759	44.3518
28.500000	101.799	43.4443
29.000000	101.836	42.5535
29.500000	101.871	41.6814
30.000000	101.903	40.8304
30.400000	101.927	40.1653
30.700001	101.945	39.6753
31.100000	101.968	39.0327
31.500000	101.992	38.4004
32.000000	102.020	37.6219
32.500000	102.047	36.8563
33.000000	102.072	36.1092
33.500000	102.094	35.3889
34.000000	102.116	34.6970
34.500000	102.139	34.0257
35.000000	102.162	33.3627
35.500000	102.183	32.7010
36.000000	102.203	32.0408
36.500000	102.218	31.3858
37.000000	102.229	30.7449
37.500000	102.235	30.1368
38.200001	102.239	29.3779
38.700001	102.248	28.8969
39.500000	102.276	28.1479
40.000000	102.300	27.6547
40.599998	102.332	27.0323
41.200001	102.363	26.3707
41.799999	102.390	25.6641
42.500000	102.405	24.8414
43.099998	102.411	24.2085
43.700001	102.420	23.6338
44.400002	102.436	22.9579
45.000000	102.444	22.3676
45.500000	102.447	21.9016
46.200001	102.451	21.3043
46.799999	102.459	20.8126
47.500000	102.471	20.2388
48.200001	102.484	19.6575
48.700001	102.495	19.2238
49.400002	102.505	18.5886
50.000000	102.505	18.0463
50.799999	102.497	17.3610
51.500000	102.486	16.7897
52.200001	102.474	16.2433
53.000000	102.461	15.6526
53.799999	102.452	15.0765
54.500000	102.444	14.5732
55.200001	102.434	14.0753
56.000000	102.422	13.5212
57.000000	102.407	12.8517
58.000000	102.392	12.1827
59.000000	102.373	11.5248
60.000000	102.355	10.8929
60.799999	102.342	10.3845
61.500000	102.328	9.9409
62.200001	102.315	9.5104
63.000000	102.301	9.0366
64.000000	102.290	8.4641
65.000000	102.282	7.8994
66.000000	102.272	7.3474
67.000000	102.262	6.8364
68.000000	102.257	6.3273
69.000000	102.251	5.7733
70.000000	102.236	5.2275
71.000000	102.220	4.7260
72.000000	102.207	4.2393
73.000000	102.194	3.7522
74.000000	102.180	3.2720
75.000000	102.166	2.8099
76.199997	102.151	2.2681
77.500000	102.134	1.6825
78.800003	102.114	1.1093
80.000000	102.093	0.5997
81.199997	102.070	0.1055
82.500000	102.044	-0.4310
83.800003	102.016	-0.9636
85.000000	101.990	-1.4396
86.199997	101.966	-1.9083
87.500000	101.941	-2.4183
88.500000	101.922	-2.8195
90.000000	101.885	-3.4203
91.199997	101.852	-3.8239
92.500000	101.823	-4.2405
93.800003	101.795	-4.6801
95.000000	101.768	-5.0902
96.199997	101.739	-5.4932
97.500000	101.707	-5.9186
98.800003	101.676	-6.3385
100.000000	101.647	-6.7250
101.500000	101.609	-7.1977
103.000000	101.569	-7.6528
104.400002	101.532	-8.0691
106.000000	101.489	-8.5357
107.500000	101.449	-8.9645
109.000000	101.409	-9.3846
110.599998	101.366	-9.8240
112.000000	101.329	-10.1983
113.800003	101.280	-10.6736
115.000000	101.247	-10.9786
117.199997	101.187	-11.5237
118.000000	101.164	-11.7219
120.599998	101.093	-12.3499
122.000000	101.056	-12.7035
124.099998	101.000	-13.2156
125.000000	100.978	-13.4246
126.500000	100.945	-13.7663
128.000000	100.914	-14.1004
131.500000	100.842	-14.8541
132.000000	100.832	-14.9596
134.000000	100.791	-15.3788
136.000000	100.750	-15.7911
138.000000	100.708	-16.1861
140.000000	100.666	-16.5660
143.000000	100.603	-17.1313
145.000000	100.560	-17.4924
147.500000	100.505	-17.9261
150.000000	100.448	-18.3513
152.500000	100.390	-18.7583
155.000000	100.331	-19.1481
157.500000	100.272	-19.5182
160.000000	100.209	-19.8617
162.500000	100.141	-20.1685
165.000000	100.070	-20.4542
167.500000	100.001	-20.7368
170.000000	99.937	-21.0187
172.500000	99.874	-21.3218
175.000000	99.810	-21.6505
177.500000	99.743	-21.9971
180.000000	99.673	-22.3383
182.500000	99.601	-22.6393
185.000000	99.527	-22.9106
187.500000	99.453	-23.1766
190.000000	99.378	-23.4327
192.500000	99.303	-23.6665
195.000000	99.228	-23.8860
197.500000	99.152	-24.0969
200.000000	99.076	-24.2841
203.000000	98.988	-24.4634
206.000000	98.900	-24.5992
209.000000	98.813	-24.6827
212.000000	98.729	-24.6929
214.000000	98.678	-24.6544
218.000000	98.594	-24.4960
220.000000	98.565	-24.4011
224.000000	98.533	-24.2698
227.000000	98.531	-24.3105
230.000000	98.535	-24.5458
233.000000	98.525	-24.9137
236.000000	98.500	-25.3303
240.000000	98.443	-25.8922
243.000000	98.386	-26.2928
247.000000	98.298	-26.7693
250.000000	98.226	-27.0816
254.000000	98.123	-27.4457
258.000000	98.017	-27.7518
262.000000	97.911	-28.0197
265.000000	97.831	-28.2014
269.000000	97.726	-28.4133
272.000000	97.648	-28.5502
276.000000	97.545	-28.7159
280.000000	97.443	-28.8702
285.000000	97.318	-29.0439
290.000000	97.194	-29.1979
295.000000	97.072	-29.3262
300.000000	96.950	-29.4217
304.000000	96.854	-29.4871
307.000000	96.783	-29.5306
311.000000	96.690	-29.5828
315.000000	96.601	-29.6285
320.000000	96.497	-29.6738
325.000000	96.399	-29.7031
330.000000	96.302	-29.7281
335.000000	96.203	-29.7394
340.000000	96.105	-29.7244
345.000000	96.007	-29.6827
350.000000	95.910	-29.6207
355.000000	95.815	-29.5289
360.000000	95.723	-29.4138
365.000000	95.634	-29.2766
370.000000	95.547	-29.1167
375.000000	95.464	-28.9434
382.000000	95.356	-28.6636
387.000000	95.289	-28.4378
395.000000	95.198	-28.1431
400.000000	95.147	-28.0334
406.000000	95.084	-27.9782
412.000000	95.013	-27.9811
418.000000	94.932	-27.9864
425.000000	94.828	-27.9597
431.000000	94.736	-27.9054
437.000000	94.642	-27.8201
444.000000	94.533	-27.6888
450.000000	94.439	-27.5487
455.000000	94.362	-27.4169
462.000000	94.257	-27.2103
468.000000	94.168	-27.0154
475.000000	94.065	-26.7830
482.000000	93.965	-26.5353
487.000000	93.893	-26.3484
494.000000	93.795	-26.0712
500.000000	93.713	-25.8203
508.000000	93.608	-25.4789
515.000000	93.519	-25.1742
522.000000	93.432	-24.8579
530.000000	93.334	-24.4855
538.000000	93.239	-24.1027
545.000000	93.156	-23.7528
552.000000	93.074	-23.3950
560.000000	92.983	-22.9848
570.000000	92.871	-22.4595
580.000000	92.762	-21.9078
590.000000	92.655	-21.3449
600.000000	92.550	-20.7651
608.000000	92.468	-20.2919
615.000000	92.399	-19.8694
622.000000	92.331	-19.4436
630.000000	92.256	-18.9532
640.000000	92.171	-18.3204
650.000000	92.089	-17.6688
660.000000	92.011	-17.0128
670.000000	91.935	-16.3481
680.000000	91.862	-15.6675
690.000000	91.792	-14.9709
700.000000	91.724	-14.2645
710.000000	91.658	-13.5518
720.000000	91.596	-12.8300
730.000000	91.536	-12.0955
740.000000	91.478	-11.3501
750.000000	91.422	-10.5959
762.000000	91.359	-9.6826
775.000000	91.297	-8.6785
788.000000	91.237	-7.6660
800.000000	91.184	-6.7177
812.000000	91.128	-5.7601
825.000000	91.069	-4.7222
838.000000	91.014	-3.6805
850.000000	90.967	-2.7131
862.000000	90.924	-1.7323
875.000000	90.883	-0.6433
885.000000	90.859	0.2097
900.000000	90.837	1.4537
912.000000	90.828	2.3846
925.000000	90.817	3.3542
938.000000	90.807	4.3080
950.000000	90.800	5.1741
962.000000	90.796	6.0217
975.000000	90.792	6.9210
988.000000	90.785	7.8021
1000.000000	90.769	8.6012
1015.000000	90.727	9.5956
1030.000000	90.670	10.6191
1044.000000	90.616	11.6561
1060.000000	90.569	12.9692
1075.000000	90.554	14.2505
1090.000000	90.567	15.4479
1106.000000	90.600	16.5312
1120.000000	90.630	17.3218
1138.000000	90.662	18.1936
1150.000000	90.676	18.7169
1172.000000	90.691	19.6082
1180.000000	90.692	19.9193
1206.000000	90.687	20.8972
1220.000000	90.682	21.4085
1241.000000	90.672	22.1700
1250.000000	90.672	22.4965
1265.000000	90.678	23.0381
1280.000000	90.689	23.5748
1315.000000	90.713	24.8307
1320.000000	90.716	25.0115
1340.000000	90.726	25.7367
1360.000000	90.734	26.4728
1380.000000	90.739	27.2254
1400.000000	90.743	27.9886
1430.000000	90.748	29.1575
1450.000000	90.750	29.9626
1475.000000	90.753	30.9961
1500.000000	90.757	32.0608
1525.000000	90.763	33.1783
1550.000000	90.774	34.3475
1575.000000	90.795	35.5594
1600.000000	90.833	36.8040
1625.000000	90.891	38.0404
1650.000000	90.967	39.2045
1675.000000	91.053	40.2494
1700.000000	91.135	41.1892
1725.000000	91.207	42.0635
1750.000000	91.270	42.9246
1775.000000	91.327	43.7999
1800.000000	91.381	44.6965
1825.000000	91.435	45.6179
1850.000000	91.491	46.5599
1875.000000	91.550	47.5156
1900.000000	91.612	48.4818
1925.000000	91.678	49.4512
1950.000000	91.747	50.4164
1975.000000	91.819	51.3788
2000.000000	91.895	52.3432
2030.000000	91.993	53.5070
2060.000000	92.098	54.6867
2090.000000	92.216	55.8836
2120.000000	92.351	57.0693
2140.000000	92.450	57.8244
2180.000000	92.670	59.1740
2200.000000	92.785	59.7477
2240.000000	93.011	60.7039
2270.000000	93.171	61.3035
2300.000000	93.322	61.8463
2330.000000	93.465	62.3556
2360.000000	93.603	62.8489
2400.000000	93.786	63.4989
2430.000000	93.925	63.9737
2470.000000	94.116	64.5431
2500.000000	94.264	64.8851
2540.000000	94.460	65.1952
2580.000000	94.645	65.3456
2620.000000	94.811	65.3765
2650.000000	94.924	65.3446
2690.000000	95.057	65.2485
2720.000000	95.144	65.1459
2760.000000	95.245	64.9795
2800.000000	95.326	64.7908
2850.000000	95.401	64.5490
2900.000000	95.445	64.3365
2950.000000	95.459	64.1895
3000.000000	95.448	64.1559
3040.000000	95.424	64.2449
3070.000000	95.403	64.3929
3110.000000	95.375	64.6993
3150.000000	95.359	65.1060
3200.000000	95.365	65.6626
3250.000000	95.391	66.1427
3300.000000	95.413	66.4861
3350.000000	95.412	66.7514
3400.000000	95.383	67.0433
3450.000000	95.329	67.4501
3500.000000	95.259	68.0181
3550.000000	95.181	68.7560
3600.000000	95.102	69.6530
3650.000000	95.026	70.6866
3700.000000	94.958	71.8323
3750.000000	94.896	73.0677
3820.000000	94.818	74.9168
3870.000000	94.768	76.3224
3950.000000	94.692	78.7398
4000.000000	94.645	80.3678
4060.000000	94.584	82.4427
4120.000000	94.534	84.6429
4180.000000	94.508	86.9368
4250.000000	94.509	89.6208
4310.000000	94.526	91.9427
4370.000000	94.560	94.3414
4440.000000	94.627	97.1967
4500.000000	94.706	99.6720
4550.000000	94.788	101.7537
4620.000000	94.928	104.6855
4680.000000	95.073	107.2064
4750.000000	95.272	110.1384
4820.000000	95.504	113.0408
4870.000000	95.691	115.0906
4940.000000	95.985	117.9141
5000.000000	96.269	120.2769
5080.000000	96.699	123.3211
5150.000000	97.123	125.8570
5220.000000	97.590	128.2471
5300.000000	98.178	130.7610
5380.000000	98.827	132.9906
5450.000000	99.448	134.6491
5520.000000	100.117	135.9617
5600.000000	100.944	136.9203
5700.000000	102.062	137.0646
5800.000000	103.244	135.6678
5900.000000	104.424	132.3087
6000.000000	105.486	126.7301
6080.000000	106.144	120.7811
6150.000000	106.514	114.8237
6220.000000	106.661	108.5973
6300.000000	106.554	101.7647
6400.000000	106.077	94.5189
6500.000000	105.368	89.2800
6600.000000	104.580	86.0824
6700.000000	103.819	84.6116
6800.000000	103.149	84.4639
6900.000000	102.600	85.2696
7000.000000	102.190	86.7312
7100.000000	101.928	88.5865
7200.000000	101.818	90.5811
7300.000000	101.860	92.4838
7400.000000	102.055	94.0649
7500.000000	102.412	95.0306
7620.000000	103.052	94.7756
7750.000000	103.949	91.6679
7880.000000	104.837	84.3563
8000.000000	105.284	73.6335
8120.000000	105.015	60.7036
8250.000000	103.794	47.6019
8380.000000	101.868	38.3548
8500.000000	99.839	33.9417
8620.000000	97.838	32.8352
8750.000000	95.846	34.2670
8850.000000	94.466	36.6216
9000.000000	92.631	41.4588
9120.000000	91.340	46.0869
9250.000000	90.089	51.6135
9380.000000	88.969	57.5231
9500.000000	88.035	63.2280
9620.000000	87.192	69.1091
9750.000000	86.374	75.6335
9880.000000	85.649	82.2813
10000.000000	85.055	88.4927
10150.000000	84.407	96.3221
10300.000000	83.853	104.1940
10440.000000	83.412	111.5567
10600.000000	83.000	119.9909
10750.000000	82.703	127.9200
10900.000000	82.492	135.8234
11060.000000	82.364	144.2010
11200.000000	82.331	151.4573
11380.000000	82.399	160.6203
11500.000000	82.517	166.6019
11720.000000	82.902	177.2643
11800.000000	83.101	-178.9854
12060.000000	83.985	-167.4823
12200.000000	84.625	-161.8913
12410.000000	85.845	-154.7981
12500.000000	86.473	-152.4715
12650.000000	87.655	-150.0211
12800.000000	88.952	-149.9977
13150.000000	91.421	-162.2713
13200.000000	91.577	-165.2257
13400.000000	91.473	-177.7709
13600.000000	90.325	172.2272
13800.000000	88.637	167.4690
14000.000000	86.927	167.6774
14300.000000	84.903	173.8278
14500.000000	84.033	179.7271
14750.000000	83.501	-172.6839
15000.000000	83.576	-166.5571
15250.000000	84.185	-164.4990
15500.000000	84.912	-169.4690
15750.000000	84.857	178.6271
16000.000000	83.360	165.3818
16250.000000	80.711	157.1896
16500.000000	77.642	156.0977
16750.000000	74.690	160.7676
17000.000000	72.074	168.9822
17250.000000	69.802	179.1047
17500.000000	67.821	-169.6644
17750.000000	66.071	-157.7669
18000.000000	64.510	-145.5196
18250.000000	63.124	-133.2557
18500.000000	61.863	-121.5603
18750.000000	60.587	-111.3125
19000.000000	59.016	-102.8162
19250.000000	56.738	-93.5515
19500.000000	53.803	-70.3799
19750.000000	52.400	-15.4282
20000.000000	53.072	11.8105
