* Measurement data measured by REW V5.30 beta 3
* Source: ASIO ASIO4ALL v2, EPOS GSX 300 1. Timing signal peak level -8.2 dBFS, measurement signal peak level -8.2 dBFS
* Format: 256k Log Swept Sine, 1 sweep at -1.5 dBFS using an acoustic timing reference
* Dated: 2023. 11. 28 ¿ÀÀü 1:09:47
* REW Settings:
*  C-weighting compensation: Off
*  Target level: 75.0 dB
* Note: FAKE DIY IE900 - Measured with IEC 60318-4 - by SilicaGel; Delay -0.0262 ms (-9.0 mm, -0.35 in) using estimated IR delay relative to Acoustic reference played from 1: aune usb dac  1 with no timing offset Clock adjustment: -21.8 ppm
* Measurement: L Default Tip
* Smoothing: 1/24 octave
* Frequency Step: 1/48 octave
* Start Frequency: 1.000 Hz
*
* Freq(Hz)	SPL(dB)	Phase(degrees)
1.000000	57.267	48.7114
1.015000	57.700	49.1620
1.030000	58.125	49.5225
1.044000	58.510	49.7820
1.060000	58.937	49.9924
1.075000	59.320	50.1111
1.090000	59.686	50.1609
1.106000	60.060	50.1576
1.120000	60.380	50.1347
1.138000	60.788	50.0947
1.150000	61.059	50.0616
1.172000	61.550	49.9841
1.180000	61.727	49.9496
1.206000	62.299	49.8118
1.220000	62.603	49.7197
1.241000	63.055	49.5564
1.250000	63.246	49.4769
1.265000	63.564	49.3312
1.280000	63.878	49.1689
1.315000	64.599	48.7241
1.320000	64.700	48.6529
1.340000	65.102	48.3492
1.360000	65.498	48.0149
1.380000	65.887	47.6501
1.400000	66.269	47.2549
1.430000	66.829	46.6060
1.450000	67.194	46.1375
1.475000	67.639	45.5250
1.500000	68.070	44.9147
1.525000	68.490	44.3179
1.550000	68.897	43.7306
1.575000	69.294	43.1478
1.600000	69.680	42.5647
1.625000	70.057	41.9777
1.650000	70.425	41.3834
1.675000	70.786	40.7788
1.700000	71.139	40.1618
1.725000	71.486	39.5301
1.750000	71.827	38.8821
1.775000	72.164	38.2165
1.800000	72.497	37.5321
1.825000	72.826	36.8302
1.850000	73.150	36.1191
1.875000	73.468	35.4109
1.900000	73.778	34.7091
1.925000	74.081	34.0136
1.950000	74.378	33.3238
1.975000	74.669	32.6386
2.000000	74.954	31.9572
2.030000	75.290	31.1431
2.060000	75.618	30.3313
2.090000	75.941	29.5200
2.120000	76.258	28.7076
2.140000	76.466	28.1645
2.180000	76.878	27.0734
2.200000	77.081	26.5258
2.240000	77.480	25.4341
2.270000	77.771	24.6229
2.300000	78.055	23.8191
2.330000	78.334	23.0226
2.360000	78.606	22.2330
2.400000	78.962	21.1902
2.430000	79.224	20.4147
2.470000	79.566	19.3882
2.500000	79.818	18.6230
2.540000	80.149	17.6074
2.580000	80.475	16.5969
2.620000	80.793	15.5939
2.650000	81.026	14.8480
2.690000	81.330	13.8627
2.720000	81.553	13.1308
2.760000	81.845	12.1645
2.800000	82.131	11.2089
2.850000	82.481	10.0288
2.900000	82.823	8.8634
2.950000	83.159	7.7114
3.000000	83.487	6.5722
3.040000	83.742	5.6708
3.070000	83.930	5.0008
3.110000	84.176	4.1159
3.150000	84.418	3.2406
3.200000	84.715	2.1598
3.250000	85.006	1.0934
3.300000	85.291	0.0405
3.350000	85.571	-1.0002
3.400000	85.844	-2.0292
3.450000	86.111	-3.0459
3.500000	86.372	-4.0501
3.550000	86.628	-5.0419
3.600000	86.879	-6.0216
3.650000	87.127	-6.9895
3.700000	87.370	-7.9469
3.750000	87.608	-8.8944
3.820000	87.933	-10.2043
3.870000	88.160	-11.1278
3.950000	88.514	-12.5843
4.000000	88.731	-13.4819
4.060000	88.987	-14.5475
4.120000	89.237	-15.6017
4.180000	89.482	-16.6447
4.250000	89.761	-17.8464
4.310000	89.995	-18.8632
4.370000	90.224	-19.8680
4.440000	90.487	-21.0269
4.500000	90.706	-22.0104
4.550000	90.886	-22.8230
4.620000	91.132	-23.9485
4.680000	91.339	-24.9014
4.750000	91.575	-25.9991
4.820000	91.806	-27.0840
4.870000	91.968	-27.8523
4.940000	92.190	-28.9181
5.000000	92.376	-29.8213
5.080000	92.618	-31.0091
5.150000	92.826	-32.0334
5.220000	93.029	-33.0466
5.300000	93.255	-34.1916
5.380000	93.476	-35.3206
5.450000	93.665	-36.2940
5.520000	93.850	-37.2540
5.600000	94.056	-38.3378
5.700000	94.307	-39.6733
5.800000	94.551	-40.9847
5.900000	94.789	-42.2711
6.000000	95.019	-43.5368
6.080000	95.199	-44.5349
6.150000	95.353	-45.3968
6.220000	95.505	-46.2479
6.300000	95.675	-47.2087
6.400000	95.882	-48.3938
6.500000	96.083	-49.5606
6.600000	96.280	-50.7089
6.700000	96.471	-51.8405
6.800000	96.658	-52.9569
6.900000	96.840	-54.0571
7.000000	97.017	-55.1412
7.100000	97.190	-56.2115
7.200000	97.359	-57.2679
7.300000	97.523	-58.3089
7.400000	97.683	-59.3354
7.500000	97.839	-60.3491
7.620000	98.021	-61.5469
7.750000	98.212	-62.8202
7.880000	98.396	-64.0711
8.000000	98.561	-65.2048
8.120000	98.722	-66.3174
8.250000	98.890	-67.5011
8.380000	99.054	-68.6622
8.500000	99.201	-69.7135
8.620000	99.344	-70.7470
8.750000	99.495	-71.8471
8.850000	99.609	-72.6799
9.000000	99.775	-73.9090
9.120000	99.905	-74.8762
9.250000	100.042	-75.9090
9.380000	100.176	-76.9275
9.500000	100.297	-77.8556
9.620000	100.416	-78.7731
9.750000	100.540	-79.7559
9.880000	100.657	-80.7269
10.000000	100.756	-81.6133
10.150000	100.869	-82.7082
10.300000	100.974	-83.7873
10.440000	101.066	-84.7805
10.600000	101.165	-85.8982
10.750000	101.254	-86.9280
10.900000	101.340	-87.9409
11.060000	101.429	-89.0013
11.200000	101.504	-89.9129
11.380000	101.597	-91.0631
11.500000	101.657	-91.8166
11.720000	101.763	-93.1725
11.800000	101.801	-93.6579
12.060000	101.920	-95.2098
12.200000	101.981	-96.0304
12.410000	102.073	-97.2431
12.500000	102.115	-97.7563
12.650000	102.186	-98.6032
12.800000	102.258	-99.4393
13.150000	102.420	-101.3468
13.200000	102.443	-101.6141
13.400000	102.530	-102.6702
13.600000	102.614	-103.7050
13.800000	102.696	-104.7189
14.000000	102.775	-105.7131
14.300000	102.888	-107.1703
14.500000	102.961	-108.1216
14.750000	103.049	-109.2898
15.000000	103.133	-110.4355
15.250000	103.214	-111.5579
15.500000	103.290	-112.6556
15.750000	103.363	-113.7275
16.000000	103.435	-114.7737
16.250000	103.505	-115.7967
16.500000	103.575	-116.8001
16.750000	103.643	-117.7881
17.000000	103.709	-118.7640
17.250000	103.771	-119.7285
17.500000	103.831	-120.6802
17.750000	103.886	-121.6147
18.000000	103.937	-122.5276
18.250000	103.986	-123.4152
18.500000	104.033	-124.2766
18.750000	104.079	-125.1142
19.000000	104.124	-125.9329
19.250000	104.170	-126.7393
19.500000	104.216	-127.5395
19.750000	104.260	-128.3371
20.000000	104.302	-129.1329
20.299999	104.350	-130.0819
20.600000	104.394	-131.0178
20.900000	104.433	-131.9331
21.200001	104.470	-132.8233
21.400000	104.494	-133.4026
21.799999	104.539	-134.5311
22.000000	104.561	-135.0828
22.400000	104.604	-136.1671
22.700001	104.634	-136.9659
23.000000	104.664	-137.7531
23.299999	104.692	-138.5280
23.600000	104.718	-139.2901
24.000000	104.751	-140.2856
24.299999	104.774	-141.0166
24.700001	104.802	-141.9702
25.000000	104.823	-142.6698
25.400000	104.848	-143.5832
25.799999	104.871	-144.4768
26.200001	104.893	-145.3521
26.500000	104.908	-145.9961
26.900000	104.927	-146.8369
27.200001	104.940	-147.4542
27.600000	104.957	-148.2635
28.000000	104.974	-149.0641
28.500000	104.992	-150.0602
29.000000	105.004	-151.0428
29.500000	105.010	-151.9882
30.000000	105.013	-152.8813
30.400000	105.017	-153.5652
30.700001	105.021	-154.0696
31.100000	105.027	-154.7404
31.500000	105.032	-155.4121
32.000000	105.036	-156.2435
32.500000	105.037	-157.0505
33.000000	105.038	-157.8303
33.500000	105.039	-158.5940
34.000000	105.039	-159.3498
34.500000	105.037	-160.0935
35.000000	105.033	-160.8171
35.500000	105.029	-161.5216
36.000000	105.024	-162.2132
36.500000	105.017	-162.8905
37.000000	105.008	-163.5433
37.500000	105.000	-164.1686
38.200001	104.993	-165.0322
38.700001	104.988	-165.6678
39.500000	104.969	-166.6906
40.000000	104.951	-167.2915
40.599998	104.932	-167.9641
41.200001	104.917	-168.6187
41.799999	104.902	-169.2810
42.500000	104.881	-170.0446
43.099998	104.862	-170.6681
43.700001	104.844	-171.2720
44.400002	104.825	-171.9794
45.000000	104.804	-172.5817
45.500000	104.785	-173.0630
46.200001	104.757	-173.7044
46.799999	104.732	-174.2426
47.500000	104.697	-174.8432
48.200001	104.661	-175.3795
48.700001	104.637	-175.7381
49.400002	104.605	-176.2340
50.000000	104.574	-176.6260
50.799999	104.539	-177.0795
51.500000	104.526	-177.5301
52.200001	104.510	-178.1047
53.000000	104.474	-178.7753
53.799999	104.437	-179.3582
54.500000	104.413	-179.8497
55.200001	104.390	179.6505
56.000000	104.368	179.0815
57.000000	104.345	178.2964
58.000000	104.299	177.4160
59.000000	104.224	176.7009
60.000000	104.167	176.1826
60.799999	104.138	175.7131
61.500000	104.108	175.2438
62.200001	104.072	174.7826
63.000000	104.033	174.2800
64.000000	103.986	173.6616
65.000000	103.936	173.0958
66.000000	103.890	172.5716
67.000000	103.843	172.0472
68.000000	103.793	171.5421
69.000000	103.741	171.0188
70.000000	103.679	170.5189
71.000000	103.617	170.0852
72.000000	103.556	169.6880
73.000000	103.499	169.3649
74.000000	103.457	169.0983
75.000000	103.432	168.8102
76.199997	103.412	168.3691
77.500000	103.386	167.7794
78.800003	103.340	167.1338
80.000000	103.279	166.6184
81.199997	103.214	166.1713
82.500000	103.143	165.6953
83.800003	103.070	165.2093
85.000000	103.004	164.7559
86.199997	102.941	164.2837
87.500000	102.873	163.8114
88.500000	102.831	163.4986
90.000000	102.765	162.9290
91.199997	102.693	162.6166
92.500000	102.630	162.3817
93.800003	102.569	162.0829
95.000000	102.509	161.7869
96.199997	102.449	161.4546
97.500000	102.376	161.0901
98.800003	102.306	160.8108
100.000000	102.252	160.5623
101.500000	102.183	160.2324
103.000000	102.110	159.9352
104.400002	102.040	159.7008
106.000000	101.959	159.4625
107.500000	101.887	159.2376
109.000000	101.812	158.9297
110.599998	101.727	158.6130
112.000000	101.658	158.3661
113.800003	101.579	158.1334
115.000000	101.529	158.0577
117.199997	101.439	158.0824
118.000000	101.405	158.1291
120.599998	101.333	157.9518
122.000000	101.264	157.4153
124.099998	101.143	156.7630
125.000000	101.102	156.5275
126.500000	101.041	156.2140
128.000000	100.988	156.0486
131.500000	100.869	155.8247
132.000000	100.851	155.7823
134.000000	100.774	155.5674
136.000000	100.698	155.3550
138.000000	100.632	155.1928
140.000000	100.565	155.0151
143.000000	100.455	154.7894
145.000000	100.379	154.6588
147.500000	100.292	154.5886
150.000000	100.220	154.5392
152.500000	100.150	154.5143
155.000000	100.083	154.5380
157.500000	100.012	154.5273
160.000000	99.937	154.5309
162.500000	99.871	154.4985
165.000000	99.813	154.3918
167.500000	99.744	154.2621
170.000000	99.666	154.1343
172.500000	99.588	153.9674
175.000000	99.511	153.7881
177.500000	99.430	153.6720
180.000000	99.348	153.6588
182.500000	99.266	153.6688
185.000000	99.184	153.6624
187.500000	99.104	153.5749
190.000000	99.025	153.4594
192.500000	98.950	153.3798
195.000000	98.873	153.3419
197.500000	98.793	153.3604
200.000000	98.715	153.3809
203.000000	98.627	153.3561
206.000000	98.542	153.3598
209.000000	98.461	153.4090
212.000000	98.382	153.4395
214.000000	98.328	153.4531
218.000000	98.226	153.5568
220.000000	98.179	153.6343
224.000000	98.087	153.7583
227.000000	98.013	153.8157
230.000000	97.936	153.8774
233.000000	97.859	153.9340
236.000000	97.786	154.0053
240.000000	97.694	154.1235
243.000000	97.624	154.2419
247.000000	97.528	154.3665
250.000000	97.455	154.4631
254.000000	97.357	154.6251
258.000000	97.254	154.7927
262.000000	97.154	154.9970
265.000000	97.082	155.1581
269.000000	96.986	155.3624
272.000000	96.916	155.5249
276.000000	96.825	155.7523
280.000000	96.738	155.9847
285.000000	96.628	156.3080
290.000000	96.521	156.6763
295.000000	96.424	157.0764
300.000000	96.339	157.4738
304.000000	96.278	157.7720
307.000000	96.235	157.9722
311.000000	96.181	158.1945
315.000000	96.128	158.3852
320.000000	96.066	158.5966
325.000000	96.002	158.8123
330.000000	95.936	159.0543
335.000000	95.867	159.3007
340.000000	95.796	159.5691
345.000000	95.728	159.8302
350.000000	95.664	160.0878
355.000000	95.597	160.3816
360.000000	95.528	160.6974
365.000000	95.465	161.0372
370.000000	95.406	161.3946
375.000000	95.349	161.7269
382.000000	95.271	162.2013
387.000000	95.215	162.5305
395.000000	95.126	163.0558
400.000000	95.071	163.3777
406.000000	95.010	163.7454
412.000000	94.952	164.1476
418.000000	94.897	164.6099
425.000000	94.826	165.0939
431.000000	94.767	165.5114
437.000000	94.717	165.9760
444.000000	94.659	166.4662
450.000000	94.609	166.8629
455.000000	94.565	167.2060
462.000000	94.506	167.7043
468.000000	94.457	168.1385
475.000000	94.404	168.6489
482.000000	94.355	169.1687
487.000000	94.321	169.5484
494.000000	94.273	170.0909
500.000000	94.232	170.5497
508.000000	94.180	171.1379
515.000000	94.142	171.6393
522.000000	94.104	172.1685
530.000000	94.062	172.7803
538.000000	94.022	173.3608
545.000000	93.986	173.8745
552.000000	93.952	174.4083
560.000000	93.916	175.0293
570.000000	93.875	175.7939
580.000000	93.836	176.5467
590.000000	93.799	177.3062
600.000000	93.765	178.0768
608.000000	93.738	178.6967
615.000000	93.716	179.2363
622.000000	93.696	179.7702
630.000000	93.678	-179.6057
640.000000	93.661	-178.8337
650.000000	93.648	-178.0585
660.000000	93.639	-177.2918
670.000000	93.629	-176.5356
680.000000	93.620	-175.7351
690.000000	93.619	-174.9235
700.000000	93.621	-174.1212
710.000000	93.622	-173.3266
720.000000	93.623	-172.5396
730.000000	93.625	-171.7653
740.000000	93.633	-171.0017
750.000000	93.647	-170.2172
762.000000	93.663	-169.2418
775.000000	93.682	-168.2092
788.000000	93.706	-167.1690
800.000000	93.730	-166.2117
812.000000	93.749	-165.2603
825.000000	93.773	-164.2137
838.000000	93.802	-163.1920
850.000000	93.831	-162.2541
862.000000	93.863	-161.3160
875.000000	93.905	-160.3116
885.000000	93.941	-159.5496
900.000000	94.001	-158.4301
912.000000	94.055	-157.5533
925.000000	94.118	-156.6129
938.000000	94.183	-155.7056
950.000000	94.248	-154.8916
962.000000	94.316	-154.0990
975.000000	94.392	-153.2678
988.000000	94.469	-152.4724
1000.000000	94.534	-151.7631
1015.000000	94.601	-150.9243
1030.000000	94.656	-150.1558
1044.000000	94.704	-149.4548
1060.000000	94.762	-148.6889
1075.000000	94.818	-148.0311
1090.000000	94.874	-147.4192
1106.000000	94.930	-146.7824
1120.000000	94.975	-146.2368
1138.000000	95.028	-145.5712
1150.000000	95.062	-145.1390
1172.000000	95.118	-144.3427
1180.000000	95.136	-144.0451
1206.000000	95.194	-143.0143
1220.000000	95.228	-142.4061
1241.000000	95.293	-141.4379
1250.000000	95.331	-141.0082
1265.000000	95.411	-140.2943
1280.000000	95.508	-139.5976
1315.000000	95.770	-138.0478
1320.000000	95.811	-137.8398
1340.000000	95.985	-137.0610
1360.000000	96.168	-136.4050
1380.000000	96.356	-135.9058
1400.000000	96.543	-135.5476
1430.000000	96.805	-135.2324
1450.000000	96.964	-135.1106
1475.000000	97.144	-134.9968
1500.000000	97.304	-134.8800
1525.000000	97.448	-134.7408
1550.000000	97.581	-134.5694
1575.000000	97.704	-134.3579
1600.000000	97.827	-134.0972
1625.000000	97.954	-133.8049
1650.000000	98.084	-133.4793
1675.000000	98.215	-133.1229
1700.000000	98.346	-132.7600
1725.000000	98.481	-132.3856
1750.000000	98.618	-132.0060
1775.000000	98.759	-131.6220
1800.000000	98.903	-131.2405
1825.000000	99.049	-130.8702
1850.000000	99.198	-130.5114
1875.000000	99.351	-130.1599
1900.000000	99.508	-129.8180
1925.000000	99.667	-129.4967
1950.000000	99.828	-129.1902
1975.000000	99.992	-128.9040
2000.000000	100.162	-128.6409
2030.000000	100.370	-128.3535
2060.000000	100.583	-128.1037
2090.000000	100.801	-127.8985
2120.000000	101.022	-127.7424
2140.000000	101.172	-127.6684
2180.000000	101.474	-127.6081
2200.000000	101.626	-127.6238
2240.000000	101.931	-127.7356
2270.000000	102.160	-127.8855
2300.000000	102.389	-128.0909
2330.000000	102.617	-128.3656
2360.000000	102.843	-128.7157
2400.000000	103.140	-129.3013
2430.000000	103.360	-129.8285
2470.000000	103.647	-130.6357
2500.000000	103.857	-131.3172
2540.000000	104.125	-132.3411
2580.000000	104.379	-133.5012
2620.000000	104.618	-134.7862
2650.000000	104.784	-135.8235
2690.000000	104.987	-137.2950
2720.000000	105.125	-138.4551
2760.000000	105.288	-140.0663
2800.000000	105.426	-141.7330
2850.000000	105.560	-143.8605
2900.000000	105.652	-145.9985
2950.000000	105.703	-148.1016
3000.000000	105.716	-150.1179
3040.000000	105.701	-151.6534
3070.000000	105.675	-152.7527
3110.000000	105.625	-154.1364
3150.000000	105.563	-155.4040
3200.000000	105.474	-156.8156
3250.000000	105.373	-158.0268
3300.000000	105.260	-159.0340
3350.000000	105.139	-159.8524
3400.000000	105.014	-160.4845
3450.000000	104.888	-160.9237
3500.000000	104.766	-161.1724
3550.000000	104.651	-161.2491
3600.000000	104.545	-161.1743
3650.000000	104.451	-160.9713
3700.000000	104.369	-160.6669
3750.000000	104.298	-160.2635
3820.000000	104.216	-159.5344
3870.000000	104.174	-158.8923
3950.000000	104.144	-157.6981
4000.000000	104.146	-156.9008
4060.000000	104.160	-155.9607
4120.000000	104.187	-155.0931
4180.000000	104.227	-154.3039
4250.000000	104.285	-153.4342
4310.000000	104.346	-152.6945
4370.000000	104.422	-151.9532
4440.000000	104.531	-151.0968
4500.000000	104.647	-150.3829
4550.000000	104.760	-149.8156
4620.000000	104.944	-149.0917
4680.000000	105.127	-148.5624
4750.000000	105.368	-148.0936
4820.000000	105.636	-147.8321
4870.000000	105.843	-147.7827
4940.000000	106.151	-147.9417
5000.000000	106.423	-148.3676
5080.000000	106.781	-149.4204
5150.000000	107.071	-150.7090
5220.000000	107.322	-152.2197
5300.000000	107.547	-154.0581
5380.000000	107.722	-155.8005
5450.000000	107.862	-157.1635
5520.000000	108.021	-158.4498
5600.000000	108.245	-160.0690
5700.000000	108.558	-162.7889
5800.000000	108.816	-166.5597
5900.000000	108.922	-171.1425
6000.000000	108.826	-175.9358
6080.000000	108.609	-179.5130
6150.000000	108.337	177.7484
6220.000000	108.010	175.4702
6300.000000	107.597	173.4883
6400.000000	107.058	171.9196
6500.000000	106.544	171.2628
6600.000000	106.089	171.3227
6700.000000	105.706	171.8697
6800.000000	105.405	172.7864
6900.000000	105.193	173.9933
7000.000000	105.069	175.3487
7100.000000	105.046	176.7151
7200.000000	105.132	177.9297
7300.000000	105.328	178.8082
7400.000000	105.634	179.1696
7500.000000	106.049	178.7769
7620.000000	106.677	176.8539
7750.000000	107.443	172.2303
7880.000000	108.108	164.2532
8000.000000	108.368	154.0520
8120.000000	108.065	142.4521
8250.000000	107.040	130.6477
8380.000000	105.467	121.6550
8500.000000	103.782	116.4414
8620.000000	102.068	113.8497
8750.000000	100.304	113.2662
8850.000000	99.044	113.8928
9000.000000	97.323	116.0486
9120.000000	96.086	118.5791
9250.000000	94.875	121.9057
9380.000000	93.783	125.6496
9500.000000	92.871	129.3584
9620.000000	92.041	133.2719
9750.000000	91.226	137.6913
9880.000000	90.488	142.2520
10000.000000	89.867	146.5569
10150.000000	89.168	152.0464
10300.000000	88.545	157.5878
10440.000000	88.024	162.7994
10600.000000	87.504	168.8626
10750.000000	87.088	174.6412
10900.000000	86.744	-179.4773
11060.000000	86.456	-173.2204
11200.000000	86.269	-167.7895
11380.000000	86.117	-160.8181
11500.000000	86.066	-156.1868
11720.000000	86.070	-147.7875
11800.000000	86.102	-144.7614
12060.000000	86.339	-134.9286
12200.000000	86.561	-129.6946
12410.000000	87.037	-122.0306
12500.000000	87.300	-118.8449
12650.000000	87.822	-113.7486
12800.000000	88.454	-108.9661
13150.000000	90.433	-99.2496
13200.000000	90.784	-98.0958
13400.000000	92.396	-94.5147
13600.000000	94.369	-93.6716
13800.000000	96.595	-97.5896
14000.000000	98.632	-108.1135
14300.000000	99.886	-133.9486
14500.000000	99.114	-150.7108
14750.000000	97.029	-163.8759
15000.000000	94.828	-167.8938
15250.000000	93.197	-166.7157
15500.000000	92.224	-163.7381
15750.000000	91.867	-160.9687
16000.000000	92.097	-160.0842
16250.000000	92.752	-162.8967
16500.000000	93.335	-170.6943
16750.000000	93.249	177.3447
17000.000000	92.163	164.7688
17250.000000	90.244	155.4717
17500.000000	87.963	151.2016
17750.000000	85.728	151.3446
18000.000000	83.710	154.4015
18250.000000	81.910	159.1589
18500.000000	80.280	164.9156
18750.000000	78.787	171.3710
19000.000000	77.432	178.7263
19250.000000	76.258	-172.6052
19500.000000	75.294	-163.1825
19750.000000	74.510	-153.6350
20000.000000	74.040	-145.6287
