* Measurement data measured by REW V5.30 beta 5
* Source: ASIO ASIO4ALL v2, EPOS GSX 300 1. Timing signal peak level -16.3 dBFS, measurement signal peak level -14.7 dBFS
* Format: 256k Log Swept Sine, 1 sweep at -5.5 dBFS using an acoustic timing reference
* Dated: 2023. 12. 14 ¿ÀÀü 2:09:23
* REW Settings:
*  C-weighting compensation: Off
*  Target level: 75.0 dB
* Note: ; Delay -0.0209 ms (-7.2 mm, -0.28 in) using estimated IR delay relative to Acoustic reference played from 2: EPOS GSX 300 2 with no timing offset
* Measurement: R Default White Tip
* Smoothing: 1/24 octave
* Frequency Step: 1/48 octave
* Start Frequency: 1.000 Hz
*
* Freq(Hz)	SPL(dB)	Phase(degrees)
1.000000	63.108	-154.2380
1.015000	63.436	-155.2339
1.030000	63.757	-156.2015
1.044000	64.050	-157.0820
1.060000	64.375	-158.0645
1.075000	64.668	-158.9654
1.090000	64.951	-159.8489
1.106000	65.242	-160.7721
1.120000	65.490	-161.5608
1.138000	65.802	-162.5467
1.150000	66.006	-163.1870
1.172000	66.374	-164.3267
1.180000	66.506	-164.7306
1.206000	66.925	-166.0069
1.220000	67.147	-166.6721
1.241000	67.473	-167.6428
1.250000	67.610	-168.0493
1.265000	67.837	-168.7146
1.280000	68.061	-169.3656
1.315000	68.572	-170.8322
1.320000	68.643	-171.0361
1.340000	68.927	-171.8386
1.360000	69.207	-172.6214
1.380000	69.483	-173.3857
1.400000	69.755	-174.1330
1.430000	70.158	-175.2246
1.450000	70.423	-175.9342
1.475000	70.750	-176.8001
1.500000	71.069	-177.6380
1.525000	71.381	-178.4480
1.550000	71.685	-179.2332
1.575000	71.981	-179.9969
1.600000	72.271	179.2576
1.625000	72.554	178.5276
1.650000	72.832	177.8105
1.675000	73.104	177.1040
1.700000	73.371	176.4058
1.725000	73.634	175.7140
1.750000	73.893	175.0269
1.775000	74.149	174.3426
1.800000	74.402	173.6599
1.825000	74.652	172.9781
1.850000	74.898	172.2988
1.875000	75.140	171.6254
1.900000	75.377	170.9594
1.925000	75.609	170.3010
1.950000	75.836	169.6502
1.975000	76.059	169.0069
2.000000	76.279	168.3709
2.030000	76.537	167.6169
2.060000	76.790	166.8724
2.090000	77.039	166.1367
2.120000	77.284	165.4091
2.140000	77.445	164.9281
2.180000	77.763	163.9748
2.200000	77.919	163.5021
2.240000	78.227	162.5640
2.270000	78.452	161.8674
2.300000	78.672	161.1772
2.330000	78.888	160.4940
2.360000	79.100	159.8179
2.400000	79.376	158.9277
2.430000	79.579	158.2684
2.470000	79.845	157.4005
2.500000	80.041	156.7575
2.540000	80.298	155.9102
2.580000	80.550	155.0729
2.620000	80.796	154.2430
2.650000	80.977	153.6253
2.690000	81.213	152.8088
2.720000	81.386	152.2024
2.760000	81.612	151.4025
2.800000	81.833	150.6130
2.850000	82.104	149.6414
2.900000	82.368	148.6871
2.950000	82.627	147.7478
3.000000	82.879	146.8185
3.040000	83.075	146.0817
3.070000	83.219	145.5337
3.110000	83.408	144.8099
3.150000	83.593	144.0951
3.200000	83.820	143.2154
3.250000	84.042	142.3522
3.300000	84.260	141.5052
3.350000	84.472	140.6709
3.400000	84.680	139.8463
3.450000	84.882	139.0320
3.500000	85.079	138.2292
3.550000	85.272	137.4389
3.600000	85.461	136.6619
3.650000	85.647	135.8983
3.700000	85.830	135.1464
3.750000	86.008	134.4037
3.820000	86.252	133.3787
3.870000	86.421	132.6582
3.950000	86.686	131.5273
4.000000	86.848	130.8350
4.060000	87.039	130.0179
4.120000	87.225	129.2133
4.180000	87.407	128.4199
4.250000	87.615	127.5091
4.310000	87.789	126.7414
4.370000	87.960	125.9857
4.440000	88.155	125.1182
4.500000	88.319	124.3848
4.550000	88.453	123.7805
4.620000	88.637	122.9454
4.680000	88.791	122.2401
4.750000	88.968	121.4292
4.820000	89.142	120.6300
4.870000	89.263	120.0653
4.940000	89.430	119.2834
5.000000	89.570	118.6216
5.080000	89.753	117.7516
5.150000	89.910	117.0017
5.220000	90.063	116.2606
5.300000	90.235	115.4239
5.380000	90.402	114.5989
5.450000	90.545	113.8876
5.520000	90.686	113.1855
5.600000	90.843	112.3929
5.700000	91.034	111.4163
5.800000	91.220	110.4572
5.900000	91.401	109.5162
6.000000	91.577	108.5906
6.080000	91.714	107.8610
6.150000	91.831	107.2313
6.220000	91.947	106.6099
6.300000	92.076	105.9092
6.400000	92.234	105.0458
6.500000	92.388	104.1971
6.600000	92.538	103.3640
6.700000	92.684	102.5450
6.800000	92.827	101.7391
6.900000	92.966	100.9470
7.000000	93.102	100.1685
7.100000	93.235	99.4024
7.200000	93.364	98.6483
7.300000	93.491	97.9067
7.400000	93.615	97.1770
7.500000	93.737	96.4583
7.620000	93.879	95.6103
7.750000	94.029	94.7094
7.880000	94.175	93.8253
8.000000	94.306	93.0238
8.120000	94.435	92.2361
8.250000	94.570	91.3971
8.380000	94.702	90.5725
8.500000	94.822	89.8236
8.620000	94.938	89.0858
8.750000	95.061	88.2985
8.850000	95.154	87.7011
9.000000	95.290	86.8176
9.120000	95.396	86.1215
9.250000	95.508	85.3777
9.380000	95.617	84.6442
9.500000	95.716	83.9765
9.620000	95.813	83.3175
9.750000	95.915	82.6131
9.880000	96.009	81.9189
10.000000	96.088	81.2872
10.150000	96.178	80.5094
10.300000	96.260	79.7451
10.440000	96.332	79.0434
10.600000	96.410	78.2552
10.750000	96.481	77.5294
10.900000	96.550	76.8155
11.060000	96.622	76.0669
11.200000	96.683	75.4224
11.380000	96.758	74.6074
11.500000	96.808	74.0723
11.720000	96.895	73.1080
11.800000	96.926	72.7625
12.060000	97.023	71.6584
12.200000	97.073	71.0755
12.410000	97.149	70.2158
12.500000	97.184	69.8527
12.650000	97.245	69.2543
12.800000	97.308	68.6640
13.150000	97.451	67.3159
13.200000	97.472	67.1263
13.400000	97.550	66.3754
13.600000	97.627	65.6353
13.800000	97.701	64.9057
14.000000	97.773	64.1867
14.300000	97.876	63.1295
14.500000	97.942	62.4403
14.750000	98.021	61.5978
15.000000	98.097	60.7771
15.250000	98.171	59.9778
15.500000	98.243	59.1977
15.750000	98.314	58.4335
16.000000	98.385	57.6819
16.250000	98.455	56.9399
16.500000	98.524	56.2064
16.750000	98.590	55.4816
17.000000	98.654	54.7672
17.250000	98.714	54.0658
17.500000	98.772	53.3795
17.750000	98.828	52.7096
18.000000	98.881	52.0560
18.250000	98.933	51.4176
18.500000	98.984	50.7924
18.750000	99.033	50.1786
19.000000	99.081	49.5750
19.250000	99.127	48.9809
19.500000	99.171	48.3964
19.750000	99.214	47.8218
20.000000	99.256	47.2576
20.299999	99.304	46.5941
20.600000	99.350	45.9452
20.900000	99.394	45.3102
21.200001	99.437	44.6894
21.400000	99.464	44.2838
21.799999	99.518	43.4929
22.000000	99.545	43.1067
22.400000	99.598	42.3477
22.700001	99.638	41.7829
23.000000	99.678	41.2159
23.299999	99.716	40.6442
23.600000	99.752	40.0705
24.000000	99.794	39.3155
24.299999	99.822	38.7681
24.700001	99.857	38.0739
25.000000	99.883	37.5781
25.400000	99.919	36.9373
25.799999	99.955	36.3046
26.200001	99.990	35.6755
26.500000	100.014	35.2112
26.900000	100.045	34.6089
27.200001	100.069	34.1683
27.600000	100.100	33.5834
28.000000	100.130	32.9892
28.500000	100.160	32.2427
29.000000	100.180	31.5391
29.500000	100.199	30.9053
30.000000	100.226	30.2932
30.400000	100.251	29.7716
30.700001	100.266	29.3592
31.100000	100.279	28.8112
31.500000	100.288	28.3063
32.000000	100.306	27.7384
32.500000	100.340	27.1341
33.000000	100.374	26.3841
33.500000	100.379	25.5542
34.000000	100.350	24.8632
34.500000	100.320	24.4589
35.000000	100.327	24.2369
35.500000	100.375	23.9369
36.000000	100.431	23.4114
36.500000	100.463	22.7494
37.000000	100.466	22.1399
37.500000	100.463	21.6804
38.200001	100.476	21.1757
38.700001	100.495	20.7892
39.500000	100.514	20.1157
40.000000	100.518	19.7236
40.599998	100.524	19.2916
41.200001	100.532	18.8632
41.799999	100.538	18.4325
42.500000	100.545	17.9586
43.099998	100.559	17.5557
43.700001	100.579	17.0947
44.400002	100.595	16.4790
45.000000	100.594	15.9855
45.500000	100.593	15.6594
46.200001	100.610	15.2873
46.799999	100.642	14.9147
47.500000	100.675	14.3450
48.200001	100.684	13.7620
48.700001	100.683	13.4119
49.400002	100.684	12.9785
50.000000	100.681	12.5969
50.799999	100.660	12.1194
51.500000	100.641	11.7744
52.200001	100.630	11.3997
53.000000	100.610	10.9053
53.799999	100.586	10.4639
54.500000	100.579	10.0629
55.200001	100.574	9.5450
56.000000	100.549	8.9241
57.000000	100.512	8.2915
58.000000	100.485	7.6843
59.000000	100.446	7.1300
60.000000	100.414	6.7303
60.799999	100.401	6.4142
61.500000	100.391	6.0924
62.200001	100.375	5.7640
63.000000	100.359	5.4069
64.000000	100.344	4.9517
65.000000	100.329	4.4811
66.000000	100.310	4.0215
67.000000	100.288	3.6114
68.000000	100.272	3.2456
69.000000	100.259	2.8552
70.000000	100.241	2.4571
71.000000	100.220	2.0892
72.000000	100.199	1.7355
73.000000	100.177	1.3853
74.000000	100.152	1.0537
75.000000	100.127	0.7523
76.199997	100.101	0.4299
77.500000	100.081	0.1047
78.800003	100.067	-0.2184
80.000000	100.057	-0.5413
81.199997	100.044	-0.9012
82.500000	100.022	-1.3115
83.800003	99.995	-1.7073
85.000000	99.969	-2.0661
86.199997	99.940	-2.4242
87.500000	99.907	-2.7816
88.500000	99.881	-3.0431
90.000000	99.843	-3.3842
91.199997	99.820	-3.6728
92.500000	99.791	-4.0282
93.800003	99.758	-4.3632
95.000000	99.727	-4.6610
96.199997	99.696	-4.9438
97.500000	99.663	-5.2419
98.800003	99.629	-5.5294
100.000000	99.597	-5.7823
101.500000	99.554	-6.0864
103.000000	99.510	-6.3756
104.400002	99.468	-6.6325
106.000000	99.421	-6.9105
107.500000	99.377	-7.1591
109.000000	99.335	-7.3932
110.599998	99.292	-7.6331
112.000000	99.257	-7.8336
113.800003	99.215	-8.0923
115.000000	99.188	-8.2681
117.199997	99.134	-8.5833
118.000000	99.114	-8.6930
120.599998	99.048	-9.0638
122.000000	99.010	-9.2883
124.099998	98.952	-9.5998
125.000000	98.930	-9.7207
126.500000	98.899	-9.9116
128.000000	98.870	-10.0923
131.500000	98.805	-10.4868
132.000000	98.796	-10.5406
134.000000	98.759	-10.7496
136.000000	98.723	-10.9492
138.000000	98.686	-11.1389
140.000000	98.649	-11.3149
143.000000	98.595	-11.5563
145.000000	98.559	-11.7065
147.500000	98.513	-11.8801
150.000000	98.468	-12.0350
152.500000	98.423	-12.1602
155.000000	98.381	-12.2494
157.500000	98.342	-12.3242
160.000000	98.306	-12.3945
162.500000	98.269	-12.4937
165.000000	98.227	-12.6375
167.500000	98.179	-12.7926
170.000000	98.130	-12.9260
172.500000	98.083	-13.0500
175.000000	98.038	-13.1821
177.500000	97.992	-13.3293
180.000000	97.944	-13.4807
182.500000	97.893	-13.6212
185.000000	97.841	-13.7455
187.500000	97.788	-13.8552
190.000000	97.736	-13.9506
192.500000	97.685	-14.0292
195.000000	97.633	-14.0919
197.500000	97.582	-14.1426
200.000000	97.535	-14.1869
203.000000	97.483	-14.2327
206.000000	97.434	-14.2657
209.000000	97.388	-14.2853
212.000000	97.346	-14.3018
214.000000	97.321	-14.3185
218.000000	97.273	-14.3784
220.000000	97.249	-14.4194
224.000000	97.200	-14.5071
227.000000	97.162	-14.5647
230.000000	97.126	-14.6218
233.000000	97.093	-14.6867
236.000000	97.062	-14.7652
240.000000	97.021	-14.9039
243.000000	96.988	-15.0371
247.000000	96.941	-15.2471
250.000000	96.898	-15.4179
254.000000	96.832	-15.6498
258.000000	96.759	-15.8845
262.000000	96.679	-16.1152
265.000000	96.616	-16.2810
269.000000	96.526	-16.4929
272.000000	96.454	-16.6429
276.000000	96.354	-16.8176
280.000000	96.247	-16.9564
285.000000	96.106	-17.0753
290.000000	95.956	-17.1121
295.000000	95.801	-17.0403
300.000000	95.645	-16.8414
304.000000	95.523	-16.5923
307.000000	95.434	-16.3553
311.000000	95.323	-15.9761
315.000000	95.225	-15.5343
320.000000	95.124	-14.9148
325.000000	95.048	-14.2555
330.000000	94.993	-13.6146
335.000000	94.953	-13.0414
340.000000	94.920	-12.5488
345.000000	94.888	-12.1193
350.000000	94.854	-11.7155
355.000000	94.819	-11.3145
360.000000	94.785	-10.9047
365.000000	94.755	-10.4680
370.000000	94.730	-10.0217
375.000000	94.714	-9.5856
382.000000	94.704	-9.0354
387.000000	94.702	-8.7008
395.000000	94.703	-8.2758
400.000000	94.699	-8.0737
406.000000	94.686	-7.8683
412.000000	94.667	-7.6663
418.000000	94.643	-7.4638
425.000000	94.611	-7.2117
431.000000	94.582	-6.9721
437.000000	94.553	-6.7204
444.000000	94.520	-6.4220
450.000000	94.492	-6.1609
455.000000	94.469	-5.9417
462.000000	94.439	-5.6310
468.000000	94.413	-5.3630
475.000000	94.383	-5.0490
482.000000	94.353	-4.7356
487.000000	94.332	-4.5107
494.000000	94.303	-4.1964
500.000000	94.281	-3.9277
508.000000	94.253	-3.5599
515.000000	94.229	-3.2340
522.000000	94.207	-2.9048
530.000000	94.182	-2.5273
538.000000	94.157	-2.1470
545.000000	94.135	-1.8114
552.000000	94.114	-1.4770
560.000000	94.091	-1.0920
570.000000	94.062	-0.5984
580.000000	94.034	-0.1017
590.000000	94.007	0.3995
600.000000	93.981	0.9109
608.000000	93.961	1.3251
615.000000	93.944	1.6908
622.000000	93.928	2.0600
630.000000	93.913	2.4890
640.000000	93.900	3.0306
650.000000	93.889	3.5765
660.000000	93.881	4.1321
670.000000	93.875	4.6982
680.000000	93.870	5.2679
690.000000	93.865	5.8434
700.000000	93.863	6.4310
710.000000	93.862	7.0278
720.000000	93.862	7.6284
730.000000	93.863	8.2358
740.000000	93.866	8.8524
750.000000	93.872	9.4764
762.000000	93.881	10.2317
775.000000	93.894	11.0637
788.000000	93.910	11.9037
800.000000	93.923	12.6884
812.000000	93.935	13.4805
825.000000	93.948	14.3453
838.000000	93.964	15.2105
850.000000	93.984	16.0116
862.000000	94.008	16.8156
875.000000	94.039	17.6834
885.000000	94.067	18.3492
900.000000	94.115	19.3396
912.000000	94.158	20.1213
925.000000	94.210	20.9575
938.000000	94.266	21.7797
950.000000	94.323	22.5222
962.000000	94.384	23.2435
975.000000	94.454	24.0010
988.000000	94.524	24.7333
1000.000000	94.584	25.3860
1015.000000	94.645	26.1658
1030.000000	94.700	26.9035
1044.000000	94.752	27.5480
1060.000000	94.814	28.2357
1075.000000	94.875	28.8288
1090.000000	94.936	29.3770
1106.000000	95.000	29.9189
1120.000000	95.057	30.3598
1138.000000	95.129	30.8839
1150.000000	95.176	31.2067
1172.000000	95.260	31.7465
1180.000000	95.290	31.9279
1206.000000	95.383	32.4734
1220.000000	95.430	32.7405
1241.000000	95.502	33.1205
1250.000000	95.536	33.2796
1265.000000	95.601	33.5389
1280.000000	95.670	33.7938
1315.000000	95.831	34.3891
1320.000000	95.853	34.4747
1340.000000	95.942	34.8177
1360.000000	96.029	35.1664
1380.000000	96.114	35.5257
1400.000000	96.198	35.8958
1430.000000	96.327	36.4719
1450.000000	96.414	36.8675
1475.000000	96.526	37.3739
1500.000000	96.642	37.8913
1525.000000	96.763	38.4129
1550.000000	96.889	38.9391
1575.000000	97.022	39.4594
1600.000000	97.163	39.9669
1625.000000	97.316	40.4549
1650.000000	97.478	40.9196
1675.000000	97.647	41.3547
1700.000000	97.824	41.7532
1725.000000	98.007	42.1030
1750.000000	98.195	42.4011
1775.000000	98.389	42.6406
1800.000000	98.587	42.8129
1825.000000	98.790	42.9134
1850.000000	98.995	42.9398
1875.000000	99.201	42.8854
1900.000000	99.408	42.7437
1925.000000	99.615	42.5144
1950.000000	99.819	42.1983
1975.000000	100.019	41.7922
2000.000000	100.215	41.2930
2030.000000	100.442	40.5785
2060.000000	100.656	39.7463
2090.000000	100.855	38.8092
2120.000000	101.036	37.7814
2140.000000	101.146	37.0548
2180.000000	101.336	35.5327
2200.000000	101.416	34.7512
2240.000000	101.546	33.1831
2270.000000	101.619	32.0380
2300.000000	101.673	30.9540
2330.000000	101.712	29.9531
2360.000000	101.744	29.0436
2400.000000	101.783	27.9449
2430.000000	101.814	27.1606
2470.000000	101.856	26.1022
2500.000000	101.880	25.2836
2540.000000	101.896	24.1888
2580.000000	101.893	23.1448
2620.000000	101.875	22.1897
2650.000000	101.854	21.5406
2690.000000	101.821	20.7661
2720.000000	101.795	20.2480
2760.000000	101.761	19.6295
2800.000000	101.729	19.0792
2850.000000	101.695	18.4597
2900.000000	101.667	17.8867
2950.000000	101.644	17.3388
3000.000000	101.622	16.8079
3040.000000	101.606	16.3970
3070.000000	101.595	16.0987
3110.000000	101.582	15.7113
3150.000000	101.575	15.3295
3200.000000	101.577	14.8514
3250.000000	101.585	14.3624
3300.000000	101.594	13.8584
3350.000000	101.601	13.3385
3400.000000	101.606	12.8026
3450.000000	101.605	12.2537
3500.000000	101.597	11.6978
3550.000000	101.582	11.1432
3600.000000	101.559	10.5966
3650.000000	101.529	10.0662
3700.000000	101.490	9.5527
3750.000000	101.442	9.0579
3820.000000	101.361	8.4122
3870.000000	101.292	7.9993
3950.000000	101.162	7.4438
4000.000000	101.064	7.1705
4060.000000	100.923	6.9264
4120.000000	100.767	6.7767
4180.000000	100.607	6.7242
4250.000000	100.419	6.7914
4310.000000	100.259	6.9623
4370.000000	100.101	7.2375
4440.000000	99.920	7.6931
4500.000000	99.771	8.2015
4550.000000	99.651	8.7075
4620.000000	99.494	9.5399
4680.000000	99.371	10.3612
4750.000000	99.249	11.4219
4820.000000	99.150	12.5490
4870.000000	99.093	13.3651
4940.000000	99.029	14.5100
5000.000000	98.988	15.5192
5080.000000	98.963	16.9523
5150.000000	98.976	18.2808
5220.000000	99.027	19.6269
5300.000000	99.133	21.0962
5380.000000	99.287	22.3856
5450.000000	99.453	23.2861
5520.000000	99.638	23.9199
5600.000000	99.856	24.2870
5700.000000	100.109	24.2386
5800.000000	100.319	23.7594
5900.000000	100.475	23.0303
6000.000000	100.584	22.2109
6080.000000	100.644	21.5596
6150.000000	100.682	21.0129
6220.000000	100.710	20.4932
6300.000000	100.727	19.9286
6400.000000	100.726	19.2553
6500.000000	100.706	18.6036
6600.000000	100.674	17.9593
6700.000000	100.631	17.3226
6800.000000	100.577	16.7062
6900.000000	100.514	16.1326
7000.000000	100.448	15.6399
7100.000000	100.385	15.2531
7200.000000	100.337	14.9609
7300.000000	100.314	14.7003
7400.000000	100.319	14.3772
7500.000000	100.349	13.8582
7620.000000	100.395	12.8790
7750.000000	100.455	11.3818
7880.000000	100.518	9.1610
8000.000000	100.527	6.2546
8120.000000	100.411	2.5244
8250.000000	100.032	-2.0757
8380.000000	99.271	-6.2356
8500.000000	98.212	-7.4888
8620.000000	97.343	-3.1063
8750.000000	97.557	0.6516
8850.000000	97.557	-2.4591
9000.000000	96.592	-5.4071
9120.000000	95.694	-3.9729
9250.000000	94.949	-0.4279
9380.000000	94.452	3.8943
9500.000000	94.178	8.0461
9620.000000	94.054	12.1210
9750.000000	94.070	16.2835
9880.000000	94.225	20.0390
10000.000000	94.474	23.0239
10150.000000	94.900	25.9584
10300.000000	95.418	27.8730
10440.000000	95.949	28.6357
10600.000000	96.569	28.2261
10750.000000	97.118	26.6243
10900.000000	97.591	23.9727
11060.000000	97.964	20.2151
11200.000000	98.149	16.3778
11380.000000	98.174	11.1010
11500.000000	98.056	7.6583
11720.000000	97.628	2.2872
11800.000000	97.441	0.7350
12060.000000	96.835	-3.4020
12200.000000	96.501	-5.3490
12410.000000	95.963	-7.9317
12500.000000	95.720	-8.8851
12650.000000	95.308	-10.2488
12800.000000	94.895	-11.3341
13150.000000	93.958	-12.9437
13200.000000	93.831	-13.0874
13400.000000	93.351	-13.5166
13600.000000	92.929	-13.8258
13800.000000	92.566	-14.1655
14000.000000	92.250	-14.6716
14300.000000	91.838	-15.9551
14500.000000	91.596	-17.3162
14750.000000	91.284	-19.7098
15000.000000	90.894	-22.6980
15250.000000	90.391	-25.9052
15500.000000	89.794	-28.8922
15750.000000	89.162	-31.2842
16000.000000	88.606	-32.9612
16250.000000	88.278	-34.0822
16500.000000	88.227	-35.0986
16750.000000	88.470	-36.7992
17000.000000	89.028	-40.3918
17250.000000	89.850	-47.5568
17500.000000	90.681	-60.0319
17750.000000	91.011	-78.4459
18000.000000	90.271	-101.0942
18250.000000	88.153	-124.1835
18500.000000	84.712	-143.8954
18750.000000	80.165	-157.8536
19000.000000	74.671	-164.6300
19250.000000	68.300	-161.0899
19500.000000	62.567	-73.6372
19750.000000	61.958	-8.3046
20000.000000	63.114	1.5511
