* Measurement data measured by REW V5.30 beta 5
* Source: ASIO ASIO4ALL v2, EPOS GSX 300 1. Timing signal peak level -16.0 dBFS, measurement signal peak level -14.9 dBFS
* Format: 256k Log Swept Sine, 1 sweep at -5.5 dBFS using an acoustic timing reference
* Dated: 2023. 12. 14 ¿ÀÀü 2:08:01
* REW Settings:
*  C-weighting compensation: Off
*  Target level: 75.0 dB
* Note: ; Delay -0.0202 ms (-6.9 mm, -0.27 in) using estimated IR delay relative to Acoustic reference played from 1: EPOS GSX 300 1 with no timing offset
* Measurement: L Default Black Tip
* Smoothing: 1/24 octave
* Frequency Step: 1/48 octave
* Start Frequency: 1.000 Hz
*
* Freq(Hz)	SPL(dB)	Phase(degrees)
1.000000	62.941	-153.6862
1.015000	63.259	-154.7158
1.030000	63.571	-155.7165
1.044000	63.856	-156.6273
1.060000	64.172	-157.6440
1.075000	64.458	-158.5763
1.090000	64.734	-159.4909
1.106000	65.018	-160.4471
1.120000	65.260	-161.2651
1.138000	65.566	-162.2894
1.150000	65.766	-162.9554
1.172000	66.127	-164.1427
1.180000	66.256	-164.5640
1.206000	66.669	-165.8963
1.220000	66.887	-166.5913
1.241000	67.208	-167.6059
1.250000	67.344	-168.0310
1.265000	67.567	-168.7268
1.280000	67.788	-169.4076
1.315000	68.292	-170.9411
1.320000	68.363	-171.1542
1.340000	68.643	-171.9928
1.360000	68.920	-172.8102
1.380000	69.193	-173.6076
1.400000	69.462	-174.3864
1.430000	69.859	-175.5225
1.450000	70.121	-176.2599
1.475000	70.443	-177.1590
1.500000	70.758	-178.0294
1.525000	71.065	-178.8717
1.550000	71.365	-179.6888
1.575000	71.657	179.5161
1.600000	71.943	178.7402
1.625000	72.222	177.9807
1.650000	72.496	177.2353
1.675000	72.765	176.5016
1.700000	73.029	175.7775
1.725000	73.288	175.0612
1.750000	73.544	174.3509
1.775000	73.796	173.6450
1.800000	74.045	172.9420
1.825000	74.292	172.2412
1.850000	74.535	171.5438
1.875000	74.773	170.8525
1.900000	75.007	170.1686
1.925000	75.235	169.4926
1.950000	75.460	168.8245
1.975000	75.680	168.1644
2.000000	75.896	167.5123
2.030000	76.151	166.7399
2.060000	76.400	165.9783
2.090000	76.646	165.2270
2.120000	76.887	164.4854
2.140000	77.046	163.9960
2.180000	77.360	163.0284
2.200000	77.514	162.5495
2.240000	77.818	161.6006
2.270000	78.040	160.8966
2.300000	78.257	160.1997
2.330000	78.470	159.5103
2.360000	78.679	158.8287
2.400000	78.951	157.9324
2.430000	79.152	157.2696
2.470000	79.414	156.3983
2.500000	79.608	155.7540
2.540000	79.862	154.9068
2.580000	80.111	154.0715
2.620000	80.355	153.2453
2.650000	80.534	152.6313
2.690000	80.767	151.8209
2.720000	80.938	151.2196
2.760000	81.162	150.4272
2.800000	81.382	149.6461
2.850000	81.651	148.6858
2.900000	81.914	147.7436
2.950000	82.172	146.8178
3.000000	82.423	145.9038
3.040000	82.618	145.1805
3.070000	82.763	144.6431
3.110000	82.952	143.9339
3.150000	83.137	143.2336
3.200000	83.364	142.3720
3.250000	83.587	141.5262
3.300000	83.806	140.6959
3.350000	84.020	139.8785
3.400000	84.229	139.0718
3.450000	84.433	138.2758
3.500000	84.633	137.4908
3.550000	84.829	136.7173
3.600000	85.021	135.9556
3.650000	85.210	135.2055
3.700000	85.396	134.4656
3.750000	85.578	133.7342
3.820000	85.827	132.7242
3.870000	86.000	132.0133
3.950000	86.272	130.8950
4.000000	86.437	130.2081
4.060000	86.633	129.3952
4.120000	86.824	128.5925
4.180000	87.011	127.7996
4.250000	87.224	126.8875
4.310000	87.403	126.1171
4.370000	87.578	125.3575
4.440000	87.779	124.4833
4.500000	87.946	123.7422
4.550000	88.083	123.1307
4.620000	88.271	122.2846
4.680000	88.429	121.5699
4.750000	88.609	120.7487
4.820000	88.785	119.9391
4.870000	88.908	119.3668
4.940000	89.076	118.5740
5.000000	89.218	117.9037
5.080000	89.402	117.0248
5.150000	89.560	116.2697
5.220000	89.714	115.5253
5.300000	89.885	114.6865
5.380000	90.053	113.8622
5.450000	90.196	113.1542
5.520000	90.337	112.4587
5.600000	90.493	111.6768
5.700000	90.684	110.7177
5.800000	90.870	109.7801
5.900000	91.051	108.8647
6.000000	91.228	107.9690
6.080000	91.366	107.2654
6.150000	91.484	106.6590
6.220000	91.601	106.0611
6.300000	91.732	105.3875
6.400000	91.893	104.5589
6.500000	92.050	103.7442
6.600000	92.204	102.9422
6.700000	92.355	102.1518
6.800000	92.503	101.3721
6.900000	92.647	100.6029
7.000000	92.788	99.8432
7.100000	92.926	99.0920
7.200000	93.060	98.3495
7.300000	93.192	97.6163
7.400000	93.320	96.8917
7.500000	93.446	96.1752
7.620000	93.592	95.3271
7.750000	93.746	94.4241
7.880000	93.896	93.5360
8.000000	94.029	92.7303
8.120000	94.159	91.9391
8.250000	94.296	91.0970
8.380000	94.429	90.2707
8.500000	94.549	89.5220
8.620000	94.666	88.7857
8.750000	94.790	88.0017
8.850000	94.883	87.4079
9.000000	95.019	86.5311
9.120000	95.126	85.8411
9.250000	95.238	85.1045
9.380000	95.349	84.3784
9.500000	95.448	83.7176
9.620000	95.546	83.0652
9.750000	95.649	82.3678
9.880000	95.745	81.6803
10.000000	95.825	81.0543
10.150000	95.916	80.2830
10.300000	96.001	79.5242
10.440000	96.075	78.8270
10.600000	96.155	78.0425
10.750000	96.229	77.3187
10.900000	96.300	76.6053
11.060000	96.375	75.8556
11.200000	96.438	75.2085
11.380000	96.517	74.3887
11.500000	96.568	73.8497
11.720000	96.658	72.8775
11.800000	96.690	72.5293
12.060000	96.790	71.4175
12.200000	96.842	70.8320
12.410000	96.920	69.9706
12.500000	96.956	69.6076
12.650000	97.019	69.0103
12.800000	97.083	68.4217
13.150000	97.232	67.0780
13.200000	97.253	66.8889
13.400000	97.334	66.1389
13.600000	97.414	65.3987
13.800000	97.490	64.6683
14.000000	97.564	63.9496
14.300000	97.669	62.8972
14.500000	97.735	62.2156
14.750000	97.816	61.3871
15.000000	97.894	60.5832
15.250000	97.972	59.7989
15.500000	98.047	59.0274
15.750000	98.122	58.2631
16.000000	98.194	57.5024
16.250000	98.265	56.7471
16.500000	98.333	56.0015
16.750000	98.396	55.2722
17.000000	98.456	54.5650
17.250000	98.514	53.8819
17.500000	98.571	53.2214
17.750000	98.627	52.5775
18.000000	98.684	51.9430
18.250000	98.740	51.3115
18.500000	98.795	50.6796
18.750000	98.847	50.0479
19.000000	98.897	49.4197
19.250000	98.944	48.8004
19.500000	98.988	48.1939
19.750000	99.031	47.6021
20.000000	99.072	47.0245
20.299999	99.121	46.3471
20.600000	99.168	45.6837
20.900000	99.214	45.0333
21.200001	99.258	44.3987
21.400000	99.286	43.9862
21.799999	99.342	43.1874
22.000000	99.370	42.7984
22.400000	99.428	42.0280
22.700001	99.472	41.4451
23.000000	99.514	40.8523
23.299999	99.552	40.2534
23.600000	99.585	39.6597
24.000000	99.623	38.9013
24.299999	99.648	38.3701
24.700001	99.682	37.7106
25.000000	99.710	37.2383
25.400000	99.751	36.6092
25.799999	99.793	35.9574
26.200001	99.831	35.2823
26.500000	99.855	34.7736
26.900000	99.881	34.1157
27.200001	99.898	33.6490
27.600000	99.920	33.0652
28.000000	99.944	32.5127
28.500000	99.979	31.8346
29.000000	100.015	31.1435
29.500000	100.050	30.4338
30.000000	100.079	29.7169
30.400000	100.098	29.1504
30.700001	100.108	28.7372
31.100000	100.119	28.2127
31.500000	100.129	27.7278
32.000000	100.143	27.1775
32.500000	100.164	26.6614
33.000000	100.191	26.1343
33.500000	100.220	25.5683
34.000000	100.243	24.9711
34.500000	100.260	24.3691
35.000000	100.273	23.7817
35.500000	100.282	23.2118
36.000000	100.288	22.6586
36.500000	100.291	22.1279
37.000000	100.293	21.6277
37.500000	100.295	21.1584
38.200001	100.301	20.5377
38.700001	100.307	20.1061
39.500000	100.316	19.4268
40.000000	100.321	19.0178
40.599998	100.326	18.5568
41.200001	100.334	18.1235
41.799999	100.347	17.6864
42.500000	100.360	17.1326
43.099998	100.364	16.6432
43.700001	100.360	16.1959
44.400002	100.361	15.7361
45.000000	100.368	15.3328
45.500000	100.372	14.9756
46.200001	100.370	14.5265
46.799999	100.374	14.2432
47.500000	100.405	13.9191
48.200001	100.448	13.4393
48.700001	100.467	13.0177
49.400002	100.474	12.4358
50.000000	100.467	12.0051
50.799999	100.449	11.5262
51.500000	100.433	11.1515
52.200001	100.414	10.7599
53.000000	100.379	10.3545
53.799999	100.352	10.1113
54.500000	100.361	9.8705
55.200001	100.380	9.4191
56.000000	100.382	8.7786
57.000000	100.378	7.9701
58.000000	100.352	7.0857
59.000000	100.302	6.5011
60.000000	100.291	6.0657
60.799999	100.283	5.6021
61.500000	100.261	5.2266
62.200001	100.237	4.9127
63.000000	100.214	4.5676
64.000000	100.186	4.1384
65.000000	100.161	3.7045
66.000000	100.135	3.2498
67.000000	100.109	2.7902
68.000000	100.082	2.3539
69.000000	100.059	1.9672
70.000000	100.041	1.5969
71.000000	100.021	1.2363
72.000000	99.995	0.9109
73.000000	99.964	0.6463
74.000000	99.935	0.4441
75.000000	99.913	0.2848
76.199997	99.904	0.0624
77.500000	99.906	-0.3011
78.800003	99.909	-0.7678
80.000000	99.905	-1.2776
81.199997	99.885	-1.7855
82.500000	99.853	-2.2416
83.800003	99.819	-2.6324
85.000000	99.785	-2.9801
86.199997	99.748	-3.3308
87.500000	99.705	-3.7394
88.500000	99.666	-4.1005
90.000000	99.593	-4.4885
91.199997	99.564	-4.6782
92.500000	99.546	-5.0443
93.800003	99.515	-5.4036
95.000000	99.483	-5.6765
96.199997	99.449	-5.9058
97.500000	99.411	-6.1440
98.800003	99.372	-6.3713
100.000000	99.337	-6.5784
101.500000	99.294	-6.8364
103.000000	99.253	-7.0803
104.400002	99.218	-7.3023
106.000000	99.182	-7.5667
107.500000	99.146	-7.8245
109.000000	99.112	-8.0670
110.599998	99.076	-8.3505
112.000000	99.038	-8.6075
113.800003	98.984	-8.9390
115.000000	98.948	-9.1685
117.199997	98.892	-9.6211
118.000000	98.874	-9.8125
120.599998	98.788	-10.3376
122.000000	98.745	-10.3937
124.099998	98.693	-10.5192
125.000000	98.670	-10.6010
126.500000	98.634	-10.7643
128.000000	98.601	-10.9498
131.500000	98.531	-11.3474
132.000000	98.521	-11.3955
134.000000	98.481	-11.5781
136.000000	98.440	-11.7658
138.000000	98.399	-11.9627
140.000000	98.359	-12.1444
143.000000	98.296	-12.3670
145.000000	98.253	-12.4948
147.500000	98.199	-12.6351
150.000000	98.146	-12.7372
152.500000	98.097	-12.7920
155.000000	98.055	-12.8135
157.500000	98.019	-12.8179
160.000000	97.985	-12.8138
162.500000	97.949	-12.8038
165.000000	97.922	-12.8032
167.500000	97.908	-12.8816
170.000000	97.896	-13.1127
172.500000	97.870	-13.4535
175.000000	97.826	-13.8053
177.500000	97.770	-14.1146
180.000000	97.708	-14.3715
182.500000	97.645	-14.5876
185.000000	97.582	-14.7667
187.500000	97.520	-14.9189
190.000000	97.459	-15.0562
192.500000	97.400	-15.1860
195.000000	97.341	-15.3058
197.500000	97.283	-15.4154
200.000000	97.227	-15.5215
203.000000	97.163	-15.6416
206.000000	97.101	-15.7544
209.000000	97.038	-15.8712
212.000000	96.976	-15.9915
214.000000	96.933	-16.0705
218.000000	96.845	-16.2198
220.000000	96.798	-16.2853
224.000000	96.700	-16.3999
227.000000	96.622	-16.4602
230.000000	96.542	-16.4877
233.000000	96.459	-16.4841
236.000000	96.374	-16.4457
240.000000	96.264	-16.3255
243.000000	96.184	-16.1830
247.000000	96.083	-15.9265
250.000000	96.010	-15.6914
254.000000	95.921	-15.3531
258.000000	95.842	-15.0092
262.000000	95.775	-14.6661
265.000000	95.729	-14.4285
269.000000	95.673	-14.1586
272.000000	95.632	-13.9878
276.000000	95.578	-13.7841
280.000000	95.522	-13.5902
285.000000	95.450	-13.3387
290.000000	95.380	-13.0811
295.000000	95.313	-12.8185
300.000000	95.248	-12.5492
304.000000	95.198	-12.3295
307.000000	95.161	-12.1635
311.000000	95.114	-11.9424
315.000000	95.072	-11.7215
320.000000	95.030	-11.4521
325.000000	94.994	-11.1891
330.000000	94.961	-10.9443
335.000000	94.928	-10.7297
340.000000	94.892	-10.5283
345.000000	94.852	-10.3048
350.000000	94.811	-10.0502
355.000000	94.772	-9.7610
360.000000	94.739	-9.4478
365.000000	94.715	-9.1336
370.000000	94.696	-8.8494
375.000000	94.679	-8.6112
382.000000	94.650	-8.3322
387.000000	94.627	-8.1408
395.000000	94.585	-7.8298
400.000000	94.558	-7.6296
406.000000	94.526	-7.3784
412.000000	94.493	-7.1195
418.000000	94.461	-6.8538
425.000000	94.425	-6.5358
431.000000	94.396	-6.2644
437.000000	94.367	-5.9897
444.000000	94.333	-5.6711
450.000000	94.306	-5.4019
455.000000	94.283	-5.1793
462.000000	94.250	-4.8661
468.000000	94.222	-4.5924
475.000000	94.190	-4.2726
482.000000	94.160	-3.9523
487.000000	94.138	-3.7225
494.000000	94.108	-3.3977
500.000000	94.084	-3.1154
508.000000	94.055	-2.7377
515.000000	94.031	-2.4080
522.000000	94.008	-2.0746
530.000000	93.982	-1.6850
538.000000	93.957	-1.2927
545.000000	93.935	-0.9473
552.000000	93.915	-0.5985
560.000000	93.892	-0.1986
570.000000	93.864	0.3087
580.000000	93.836	0.8220
590.000000	93.810	1.3368
600.000000	93.784	1.8666
608.000000	93.765	2.2932
615.000000	93.749	2.6652
622.000000	93.734	3.0424
630.000000	93.720	3.4760
640.000000	93.708	4.0222
650.000000	93.700	4.5767
660.000000	93.693	5.1369
670.000000	93.687	5.7051
680.000000	93.683	6.2862
690.000000	93.679	6.8743
700.000000	93.677	7.4720
710.000000	93.675	8.0787
720.000000	93.676	8.6921
730.000000	93.678	9.3147
740.000000	93.681	9.9473
750.000000	93.688	10.5856
762.000000	93.699	11.3669
775.000000	93.714	12.2244
788.000000	93.732	13.0889
800.000000	93.749	13.8887
812.000000	93.763	14.6943
825.000000	93.780	15.5752
838.000000	93.800	16.4546
850.000000	93.822	17.2697
862.000000	93.849	18.0865
875.000000	93.883	18.9666
885.000000	93.913	19.6398
900.000000	93.964	20.6431
912.000000	94.010	21.4348
925.000000	94.064	22.2788
938.000000	94.123	23.1044
950.000000	94.181	23.8489
962.000000	94.244	24.5779
975.000000	94.317	25.3482
988.000000	94.390	26.0941
1000.000000	94.453	26.7554
1015.000000	94.516	27.5436
1030.000000	94.574	28.2889
1044.000000	94.630	28.9426
1060.000000	94.696	29.6425
1075.000000	94.761	30.2471
1090.000000	94.826	30.8078
1106.000000	94.897	31.3595
1120.000000	94.959	31.8030
1138.000000	95.037	32.3248
1150.000000	95.087	32.6454
1172.000000	95.178	33.1797
1180.000000	95.210	33.3597
1206.000000	95.309	33.9025
1220.000000	95.360	34.1686
1241.000000	95.437	34.5431
1250.000000	95.474	34.6960
1265.000000	95.542	34.9446
1280.000000	95.615	35.1904
1315.000000	95.784	35.7537
1320.000000	95.807	35.8352
1340.000000	95.899	36.1622
1360.000000	95.989	36.4944
1380.000000	96.078	36.8399
1400.000000	96.166	37.1951
1430.000000	96.300	37.7420
1450.000000	96.391	38.1149
1475.000000	96.507	38.5903
1500.000000	96.627	39.0766
1525.000000	96.752	39.5706
1550.000000	96.881	40.0603
1575.000000	97.016	40.5446
1600.000000	97.160	41.0142
1625.000000	97.315	41.4682
1650.000000	97.478	41.9003
1675.000000	97.649	42.3011
1700.000000	97.826	42.6647
1725.000000	98.010	42.9802
1750.000000	98.199	43.2401
1775.000000	98.394	43.4418
1800.000000	98.593	43.5786
1825.000000	98.797	43.6449
1850.000000	99.003	43.6331
1875.000000	99.211	43.5345
1900.000000	99.419	43.3458
1925.000000	99.626	43.0644
1950.000000	99.830	42.6896
1975.000000	100.030	42.2181
2000.000000	100.224	41.6497
2030.000000	100.448	40.8473
2060.000000	100.656	39.9258
2090.000000	100.846	38.9016
2120.000000	101.015	37.7932
2140.000000	101.116	37.0210
2180.000000	101.285	35.4323
2200.000000	101.354	34.6325
2240.000000	101.463	33.0649
2270.000000	101.524	31.9409
2300.000000	101.570	30.8711
2330.000000	101.607	29.8519
2360.000000	101.634	28.8720
2400.000000	101.656	27.6095
2430.000000	101.660	26.6960
2470.000000	101.648	25.5434
2500.000000	101.626	24.7474
2540.000000	101.583	23.7983
2580.000000	101.530	22.9875
2620.000000	101.471	22.3112
2650.000000	101.427	21.8876
2690.000000	101.371	21.4169
2720.000000	101.332	21.1253
2760.000000	101.286	20.8002
2800.000000	101.247	20.5276
2850.000000	101.208	20.2444
2900.000000	101.178	20.0062
2950.000000	101.157	19.8014
3000.000000	101.144	19.6262
3040.000000	101.140	19.4990
3070.000000	101.140	19.4053
3110.000000	101.147	19.2782
3150.000000	101.163	19.1424
3200.000000	101.197	18.9481
3250.000000	101.240	18.7228
3300.000000	101.287	18.4607
3350.000000	101.336	18.1605
3400.000000	101.383	17.8234
3450.000000	101.429	17.4482
3500.000000	101.470	17.0388
3550.000000	101.507	16.5985
3600.000000	101.536	16.1342
3650.000000	101.558	15.6511
3700.000000	101.572	15.1526
3750.000000	101.576	14.6494
3820.000000	101.565	13.9522
3870.000000	101.546	13.4689
3950.000000	101.494	12.7452
4000.000000	101.441	12.3339
4060.000000	101.351	11.8940
4120.000000	101.244	11.5214
4180.000000	101.128	11.2241
4250.000000	100.987	10.9775
4310.000000	100.861	10.8584
4370.000000	100.734	10.8281
4440.000000	100.586	10.9062
4500.000000	100.459	11.0741
4550.000000	100.356	11.2817
4620.000000	100.217	11.6651
4680.000000	100.103	12.0687
4750.000000	99.976	12.6124
4820.000000	99.856	13.2345
4870.000000	99.775	13.7358
4940.000000	99.670	14.5291
5000.000000	99.595	15.2969
5080.000000	99.525	16.4382
5150.000000	99.494	17.5250
5220.000000	99.494	18.6621
5300.000000	99.536	19.9696
5380.000000	99.624	21.2047
5450.000000	99.736	22.1493
5520.000000	99.875	22.8947
5600.000000	100.054	23.4364
5700.000000	100.283	23.5970
5800.000000	100.483	23.2301
5900.000000	100.630	22.4886
6000.000000	100.719	21.5707
6080.000000	100.752	20.8253
6150.000000	100.759	20.2119
6220.000000	100.748	19.6539
6300.000000	100.717	19.0902
6400.000000	100.647	18.4904
6500.000000	100.554	18.0104
6600.000000	100.446	17.6640
6700.000000	100.330	17.4761
6800.000000	100.216	17.4719
6900.000000	100.116	17.6521
7000.000000	100.044	17.9834
7100.000000	100.012	18.3961
7200.000000	100.023	18.7856
7300.000000	100.074	19.0399
7400.000000	100.154	19.1036
7500.000000	100.265	18.9465
7620.000000	100.436	18.2361
7750.000000	100.627	16.6308
7880.000000	100.785	14.0673
8000.000000	100.849	10.7738
8120.000000	100.760	6.6472
8250.000000	100.380	1.6525
8380.000000	99.584	-2.7656
8500.000000	98.473	-3.7001
8620.000000	97.739	1.9278
8750.000000	98.212	4.4116
8850.000000	98.094	-0.0688
9000.000000	96.903	-3.1534
9120.000000	95.900	-1.3698
9250.000000	95.078	2.6981
9380.000000	94.534	7.7306
9500.000000	94.255	12.6483
9620.000000	94.165	17.4671
9750.000000	94.252	22.2853
9880.000000	94.493	26.4872
10000.000000	94.820	29.7584
10150.000000	95.340	33.0293
10300.000000	95.970	35.2942
10440.000000	96.632	36.2620
10600.000000	97.419	35.7648
10750.000000	98.111	33.7352
10900.000000	98.686	30.3931
11060.000000	99.106	25.7842
11200.000000	99.275	21.3271
11380.000000	99.231	15.7980
11500.000000	99.089	12.6110
11720.000000	98.756	7.8535
11800.000000	98.632	6.3323
12060.000000	98.196	1.7716
12200.000000	97.929	-0.4384
12410.000000	97.493	-3.3951
12500.000000	97.299	-4.5336
12650.000000	96.972	-6.2720
12800.000000	96.646	-7.8326
13150.000000	95.899	-10.9938
13200.000000	95.795	-11.4157
13400.000000	95.389	-13.1068
13600.000000	95.002	-14.9015
13800.000000	94.618	-16.8856
14000.000000	94.208	-19.0769
14300.000000	93.501	-22.5886
14500.000000	92.963	-24.9214
14750.000000	92.213	-27.5651
15000.000000	91.385	-29.5452
15250.000000	90.533	-30.6033
15500.000000	89.743	-30.6835
15750.000000	89.097	-29.9427
16000.000000	88.706	-28.7026
16250.000000	88.690	-27.4527
16500.000000	89.062	-26.8871
16750.000000	89.805	-28.0247
17000.000000	90.876	-32.3277
17250.000000	92.102	-41.5437
17500.000000	93.070	-56.8276
17750.000000	93.228	-77.4436
18000.000000	92.169	-100.4369
18250.000000	89.821	-122.0167
18500.000000	86.374	-139.1636
18750.000000	82.090	-150.1293
19000.000000	77.187	-153.9114
19250.000000	71.780	-148.5356
19500.000000	66.170	-122.7133
19750.000000	62.334	-52.9944
20000.000000	61.904	-17.2852
