* Measurement data measured by REW V5.30 beta 5
* Source: ASIO ASIO4ALL v2, EPOS GSX 300 1. Timing signal peak level -15.8 dBFS, measurement signal peak level -11.3 dBFS
* Format: 256k Log Swept Sine, 1 sweep at -5.5 dBFS using an acoustic timing reference
* Dated: 2023. 12. 14 ¿ÀÀü 2:05:13
* REW Settings:
*  C-weighting compensation: Off
*  Target level: 75.0 dB
* Note: ; Delay -0.0191 ms (-6.5 mm, -0.26 in) using estimated IR delay relative to Acoustic reference played from 1: EPOS GSX 300 1 with no timing offset
* Measurement: L Default White Tip
* Smoothing: 1/24 octave
* Frequency Step: 1/48 octave
* Start Frequency: 1.000 Hz
*
* Freq(Hz)	SPL(dB)	Phase(degrees)
1.000000	63.373	-154.3696
1.015000	63.681	-155.3350
1.030000	63.983	-156.2764
1.044000	64.259	-157.1357
1.060000	64.566	-158.0976
1.075000	64.846	-158.9826
1.090000	65.117	-159.8530
1.106000	65.396	-160.7654
1.120000	65.635	-161.5472
1.138000	65.936	-162.5278
1.150000	66.134	-163.1664
1.172000	66.490	-164.3064
1.180000	66.617	-164.7114
1.206000	67.023	-165.9944
1.220000	67.238	-166.6649
1.241000	67.554	-167.6453
1.250000	67.687	-168.0566
1.265000	67.907	-168.7306
1.280000	68.124	-169.3910
1.315000	68.620	-170.8818
1.320000	68.690	-171.0894
1.340000	68.966	-171.9072
1.360000	69.238	-172.7056
1.380000	69.507	-173.4862
1.400000	69.772	-174.2500
1.430000	70.164	-175.3668
1.450000	70.421	-176.0934
1.475000	70.740	-176.9811
1.500000	71.051	-177.8419
1.525000	71.354	-178.6760
1.550000	71.651	-179.4862
1.575000	71.940	179.7245
1.600000	72.223	178.9532
1.625000	72.500	178.1975
1.650000	72.771	177.4547
1.675000	73.038	176.7228
1.700000	73.299	175.9996
1.725000	73.557	175.2833
1.750000	73.810	174.5722
1.775000	74.060	173.8646
1.800000	74.307	173.1592
1.825000	74.552	172.4551
1.850000	74.793	171.7535
1.875000	75.029	171.0575
1.900000	75.260	170.3682
1.925000	75.487	169.6862
1.950000	75.710	169.0118
1.975000	75.928	168.3449
2.000000	76.143	167.6856
2.030000	76.395	166.9043
2.060000	76.643	166.1334
2.090000	76.887	165.3723
2.120000	77.126	164.6207
2.140000	77.284	164.1244
2.180000	77.594	163.1425
2.200000	77.748	162.6562
2.240000	78.048	161.6916
2.270000	78.268	160.9752
2.300000	78.484	160.2654
2.330000	78.695	159.5627
2.360000	78.902	158.8677
2.400000	79.172	157.9532
2.430000	79.370	157.2767
2.470000	79.630	156.3874
2.500000	79.821	155.7297
2.540000	80.072	154.8648
2.580000	80.319	154.0118
2.620000	80.559	153.1674
2.650000	80.736	152.5394
2.690000	80.966	151.7098
2.720000	81.135	151.0941
2.760000	81.356	150.2826
2.800000	81.572	149.4826
2.850000	81.837	148.4995
2.900000	82.096	147.5357
2.950000	82.349	146.5891
3.000000	82.596	145.6543
3.040000	82.788	144.9142
3.070000	82.930	144.3641
3.110000	83.115	143.6383
3.150000	83.297	142.9220
3.200000	83.519	142.0411
3.250000	83.738	141.1775
3.300000	83.952	140.3309
3.350000	84.161	139.4980
3.400000	84.365	138.6761
3.450000	84.565	137.8653
3.500000	84.759	137.0664
3.550000	84.950	136.2800
3.600000	85.138	135.5067
3.650000	85.322	134.7465
3.700000	85.503	133.9979
3.750000	85.680	133.2586
3.820000	85.922	132.2390
3.870000	86.091	131.5222
3.950000	86.355	130.3963
4.000000	86.516	129.7063
4.060000	86.707	128.8911
4.120000	86.893	128.0876
4.180000	87.075	127.2951
4.250000	87.283	126.3846
4.310000	87.457	125.6168
4.370000	87.628	124.8604
4.440000	87.824	123.9910
4.500000	87.988	123.2553
4.550000	88.122	122.6489
4.620000	88.306	121.8105
4.680000	88.461	121.1024
4.750000	88.638	120.2888
4.820000	88.811	119.4870
4.870000	88.933	118.9204
4.940000	89.099	118.1360
5.000000	89.239	117.4725
5.080000	89.422	116.6015
5.150000	89.579	115.8521
5.220000	89.732	115.1125
5.300000	89.903	114.2787
5.380000	90.070	113.4581
5.450000	90.214	112.7517
5.520000	90.354	112.0562
5.600000	90.512	111.2725
5.700000	90.703	110.3092
5.800000	90.890	109.3649
5.900000	91.072	108.4399
6.000000	91.250	107.5320
6.080000	91.388	106.8173
6.150000	91.508	106.2003
6.220000	91.625	105.5914
6.300000	91.757	104.9043
6.400000	91.918	104.0579
6.500000	92.075	103.2251
6.600000	92.229	102.4057
6.700000	92.379	101.5984
6.800000	92.526	100.8027
6.900000	92.670	100.0188
7.000000	92.810	99.2465
7.100000	92.947	98.4846
7.200000	93.081	97.7331
7.300000	93.212	96.9932
7.400000	93.339	96.2642
7.500000	93.464	95.5453
7.620000	93.610	94.6968
7.750000	93.763	93.7960
7.880000	93.913	92.9127
8.000000	94.047	92.1130
8.120000	94.177	91.3288
8.250000	94.315	90.4952
8.380000	94.450	89.6776
8.500000	94.571	88.9366
8.620000	94.690	88.2079
8.750000	94.816	87.4312
8.850000	94.911	86.8422
9.000000	95.050	85.9715
9.120000	95.158	85.2855
9.250000	95.273	84.5520
9.380000	95.386	83.8280
9.500000	95.487	83.1683
9.620000	95.586	82.5165
9.750000	95.690	81.8192
9.880000	95.787	81.1316
10.000000	95.868	80.5057
10.150000	95.960	79.7349
10.300000	96.044	78.9782
10.440000	96.118	78.2843
10.600000	96.197	77.5061
10.750000	96.270	76.7910
10.900000	96.340	76.0890
11.060000	96.413	75.3540
11.200000	96.475	74.7219
11.380000	96.553	73.9226
11.500000	96.604	73.3975
11.720000	96.695	72.4490
11.800000	96.727	72.1080
12.060000	96.828	71.0138
12.200000	96.880	70.4327
12.410000	96.959	69.5716
12.500000	96.995	69.2067
12.650000	97.057	68.6041
12.800000	97.120	68.0092
13.150000	97.263	66.6542
13.200000	97.283	66.4646
13.400000	97.360	65.7169
13.600000	97.436	64.9857
13.800000	97.509	64.2701
14.000000	97.581	63.5680
14.300000	97.686	62.5352
14.500000	97.755	61.8567
14.750000	97.838	61.0164
15.000000	97.918	60.1841
15.250000	97.994	59.3616
15.500000	98.067	58.5532
15.750000	98.135	57.7638
16.000000	98.202	56.9976
16.250000	98.267	56.2557
16.500000	98.333	55.5360
16.750000	98.398	54.8333
17.000000	98.462	54.1412
17.250000	98.525	53.4548
17.500000	98.586	52.7720
17.750000	98.645	52.0948
18.000000	98.699	51.4278
18.250000	98.751	50.7770
18.500000	98.800	50.1469
18.750000	98.847	49.5382
19.000000	98.894	48.9484
19.250000	98.942	48.3710
19.500000	98.989	47.7996
19.750000	99.035	47.2297
20.000000	99.080	46.6604
20.299999	99.131	45.9830
20.600000	99.177	45.3218
20.900000	99.221	44.6858
21.200001	99.264	44.0768
21.400000	99.294	43.6820
21.799999	99.355	42.9001
22.000000	99.386	42.5043
22.400000	99.447	41.6907
22.700001	99.488	41.0663
23.000000	99.524	40.4446
23.299999	99.554	39.8424
23.600000	99.580	39.2720
24.000000	99.614	38.5643
24.299999	99.642	38.0631
24.700001	99.681	37.4111
25.000000	99.712	36.9219
25.400000	99.753	36.2637
25.799999	99.791	35.6044
26.200001	99.826	34.9524
26.500000	99.851	34.4708
26.900000	99.882	33.8395
27.200001	99.903	33.3754
27.600000	99.930	32.7732
28.000000	99.955	32.1933
28.500000	99.986	31.4955
29.000000	100.018	30.8102
29.500000	100.048	30.1254
30.000000	100.074	29.4503
30.400000	100.092	28.9286
30.700001	100.106	28.5498
31.100000	100.125	28.0542
31.500000	100.145	27.5571
32.000000	100.171	26.9187
32.500000	100.192	26.2636
33.000000	100.205	25.6161
33.500000	100.211	25.0095
34.000000	100.215	24.4655
34.500000	100.223	23.9766
35.000000	100.238	23.5057
35.500000	100.258	23.0126
36.000000	100.276	22.4890
36.500000	100.289	21.9644
37.000000	100.298	21.4689
37.500000	100.308	20.9984
38.200001	100.326	20.3271
38.700001	100.333	19.8333
39.500000	100.333	19.1074
40.000000	100.334	18.7145
40.599998	100.343	18.2546
41.200001	100.353	17.7635
41.799999	100.356	17.2598
42.500000	100.351	16.7123
43.099998	100.345	16.2943
43.700001	100.338	15.9313
44.400002	100.337	15.5825
45.000000	100.347	15.3088
45.500000	100.364	15.0618
46.200001	100.392	14.6752
46.799999	100.420	14.3099
47.500000	100.456	13.8002
48.200001	100.481	13.1999
48.700001	100.486	12.7885
49.400002	100.493	12.2883
50.000000	100.507	11.8348
50.799999	100.504	11.0783
51.500000	100.462	10.4794
52.200001	100.415	10.1311
53.000000	100.396	9.8334
53.799999	100.390	9.4117
54.500000	100.378	9.0238
55.200001	100.373	8.6469
56.000000	100.371	8.1180
57.000000	100.346	7.4072
58.000000	100.318	6.8286
59.000000	100.296	6.2209
60.000000	100.258	5.6575
60.799999	100.231	5.3156
61.500000	100.215	5.0223
62.200001	100.202	4.7023
63.000000	100.185	4.3325
64.000000	100.168	3.8742
65.000000	100.150	3.3949
66.000000	100.125	2.9497
67.000000	100.101	2.5481
68.000000	100.078	2.1605
69.000000	100.056	1.8000
70.000000	100.035	1.4415
71.000000	100.010	1.0885
72.000000	99.981	0.7745
73.000000	99.954	0.5011
74.000000	99.931	0.2460
75.000000	99.912	0.0054
76.199997	99.900	-0.2625
77.500000	99.903	-0.6118
78.800003	99.908	-1.0947
80.000000	99.898	-1.6042
81.199997	99.873	-2.0834
82.500000	99.837	-2.5483
83.800003	99.800	-2.9667
85.000000	99.765	-3.3298
86.199997	99.730	-3.6730
87.500000	99.693	-4.0255
88.500000	99.663	-4.2868
90.000000	99.623	-4.6425
91.199997	99.592	-4.9589
92.500000	99.552	-5.2858
93.800003	99.513	-5.5855
95.000000	99.478	-5.8585
96.199997	99.442	-6.1267
97.500000	99.403	-6.4019
98.800003	99.366	-6.6740
100.000000	99.333	-6.9286
101.500000	99.289	-7.2300
103.000000	99.246	-7.5089
104.400002	99.205	-7.7538
106.000000	99.156	-8.0102
107.500000	99.112	-8.2366
109.000000	99.069	-8.4845
110.599998	99.023	-8.7466
112.000000	98.985	-8.9612
113.800003	98.941	-9.2135
115.000000	98.912	-9.3727
117.199997	98.850	-9.6365
118.000000	98.825	-9.7103
120.599998	98.763	-9.9916
122.000000	98.727	-10.2710
124.099998	98.667	-10.6467
125.000000	98.644	-10.7812
126.500000	98.611	-10.9741
128.000000	98.584	-11.1492
131.500000	98.515	-11.5449
132.000000	98.505	-11.5986
134.000000	98.466	-11.8145
136.000000	98.427	-12.0153
138.000000	98.388	-12.1942
140.000000	98.351	-12.3784
143.000000	98.295	-12.6432
145.000000	98.259	-12.7988
147.500000	98.211	-12.9741
150.000000	98.162	-13.1118
152.500000	98.115	-13.2318
155.000000	98.072	-13.3250
157.500000	98.035	-13.3719
160.000000	98.005	-13.4310
162.500000	97.971	-13.5648
165.000000	97.932	-13.7493
167.500000	97.889	-13.9412
170.000000	97.845	-14.1440
172.500000	97.794	-14.3721
175.000000	97.738	-14.5919
177.500000	97.679	-14.7869
180.000000	97.620	-14.9563
182.500000	97.562	-15.1082
185.000000	97.506	-15.2487
187.500000	97.448	-15.3805
190.000000	97.391	-15.5051
192.500000	97.334	-15.6331
195.000000	97.277	-15.7628
197.500000	97.220	-15.8739
200.000000	97.166	-15.9698
203.000000	97.104	-16.0803
206.000000	97.044	-16.1915
209.000000	96.982	-16.2893
212.000000	96.921	-16.3810
214.000000	96.882	-16.4443
218.000000	96.805	-16.5962
220.000000	96.765	-16.6801
224.000000	96.679	-16.8405
227.000000	96.608	-16.9402
230.000000	96.536	-17.0114
233.000000	96.464	-17.0562
236.000000	96.392	-17.0794
240.000000	96.297	-17.0895
243.000000	96.224	-17.0898
247.000000	96.124	-17.0675
250.000000	96.046	-17.0233
254.000000	95.938	-16.9185
258.000000	95.826	-16.7639
262.000000	95.717	-16.5615
265.000000	95.639	-16.3784
269.000000	95.540	-16.1045
272.000000	95.469	-15.8802
276.000000	95.379	-15.5601
280.000000	95.295	-15.2222
285.000000	95.198	-14.7812
290.000000	95.109	-14.3263
295.000000	95.025	-13.8728
300.000000	94.945	-13.4189
304.000000	94.885	-13.0450
307.000000	94.843	-12.7550
311.000000	94.792	-12.3497
315.000000	94.752	-11.9194
320.000000	94.721	-11.3771
325.000000	94.707	-10.8989
330.000000	94.699	-10.5195
335.000000	94.688	-10.2047
340.000000	94.672	-9.9089
345.000000	94.653	-9.6168
350.000000	94.632	-9.3196
355.000000	94.610	-8.9868
360.000000	94.598	-8.6099
365.000000	94.601	-8.2426
370.000000	94.612	-7.9615
375.000000	94.622	-7.7997
382.000000	94.621	-7.6815
387.000000	94.610	-7.6157
395.000000	94.577	-7.4589
400.000000	94.553	-7.3174
406.000000	94.526	-7.1470
412.000000	94.498	-6.9753
418.000000	94.468	-6.8043
425.000000	94.431	-6.6053
431.000000	94.396	-6.4169
437.000000	94.362	-6.2024
444.000000	94.322	-5.9355
450.000000	94.289	-5.6957
455.000000	94.262	-5.4867
462.000000	94.228	-5.1878
468.000000	94.200	-4.9282
475.000000	94.167	-4.6233
482.000000	94.135	-4.3262
487.000000	94.112	-4.1139
494.000000	94.080	-3.8020
500.000000	94.055	-3.5327
508.000000	94.025	-3.1799
515.000000	94.000	-2.8621
522.000000	93.975	-2.5396
530.000000	93.947	-2.1658
538.000000	93.921	-1.7882
545.000000	93.899	-1.4579
552.000000	93.878	-1.1299
560.000000	93.854	-0.7487
570.000000	93.824	-0.2559
580.000000	93.795	0.2387
590.000000	93.767	0.7376
600.000000	93.740	1.2465
608.000000	93.720	1.6599
615.000000	93.703	2.0261
622.000000	93.688	2.3945
630.000000	93.672	2.8181
640.000000	93.659	3.3507
650.000000	93.649	3.8934
660.000000	93.642	4.4457
670.000000	93.635	4.9985
680.000000	93.631	5.5632
690.000000	93.627	6.1421
700.000000	93.625	6.7271
710.000000	93.622	7.3076
720.000000	93.623	7.8958
730.000000	93.625	8.4973
740.000000	93.628	9.0994
750.000000	93.631	9.7095
762.000000	93.637	10.4598
775.000000	93.647	11.2814
788.000000	93.660	12.1217
800.000000	93.672	12.9126
812.000000	93.681	13.7137
825.000000	93.692	14.5930
838.000000	93.708	15.4782
850.000000	93.727	16.2974
862.000000	93.752	17.1225
875.000000	93.784	18.0087
885.000000	93.813	18.6853
900.000000	93.863	19.6952
912.000000	93.908	20.4872
925.000000	93.962	21.3306
938.000000	94.021	22.1582
950.000000	94.080	22.9009
962.000000	94.143	23.6282
975.000000	94.214	24.3964
988.000000	94.288	25.1346
1000.000000	94.350	25.7870
1015.000000	94.414	26.5604
1030.000000	94.471	27.2896
1044.000000	94.526	27.9340
1060.000000	94.590	28.6186
1075.000000	94.652	29.2144
1090.000000	94.715	29.7691
1106.000000	94.784	30.3107
1120.000000	94.844	30.7469
1138.000000	94.919	31.2583
1150.000000	94.969	31.5708
1172.000000	95.056	32.0937
1180.000000	95.087	32.2689
1206.000000	95.182	32.7821
1220.000000	95.230	33.0355
1241.000000	95.304	33.3997
1250.000000	95.339	33.5514
1265.000000	95.404	33.8024
1280.000000	95.475	34.0504
1315.000000	95.640	34.6224
1320.000000	95.663	34.7045
1340.000000	95.753	35.0329
1360.000000	95.841	35.3639
1380.000000	95.928	35.7029
1400.000000	96.015	36.0530
1430.000000	96.145	36.5954
1450.000000	96.234	36.9678
1475.000000	96.347	37.4431
1500.000000	96.465	37.9286
1525.000000	96.587	38.4211
1550.000000	96.713	38.9070
1575.000000	96.847	39.3868
1600.000000	96.988	39.8568
1625.000000	97.141	40.3102
1650.000000	97.302	40.7401
1675.000000	97.471	41.1400
1700.000000	97.645	41.5011
1725.000000	97.826	41.8192
1750.000000	98.013	42.0882
1775.000000	98.205	42.2997
1800.000000	98.403	42.4447
1825.000000	98.605	42.5190
1850.000000	98.809	42.5150
1875.000000	99.016	42.4261
1900.000000	99.223	42.2488
1925.000000	99.429	41.9790
1950.000000	99.632	41.6131
1975.000000	99.832	41.1522
2000.000000	100.026	40.5980
2030.000000	100.250	39.8127
2060.000000	100.460	38.9076
2090.000000	100.652	37.8991
2120.000000	100.825	36.8026
2140.000000	100.927	36.0343
2180.000000	101.101	34.4476
2200.000000	101.173	33.6472
2240.000000	101.288	32.0710
2270.000000	101.354	30.9351
2300.000000	101.406	29.8487
2330.000000	101.446	28.8081
2360.000000	101.478	27.7994
2400.000000	101.505	26.4872
2430.000000	101.512	25.5308
2470.000000	101.503	24.3160
2500.000000	101.483	23.4691
2540.000000	101.443	22.4446
2580.000000	101.391	21.5484
2620.000000	101.333	20.7805
2650.000000	101.286	20.2823
2690.000000	101.223	19.7115
2720.000000	101.177	19.3506
2760.000000	101.117	18.9529
2800.000000	101.062	18.6403
2850.000000	101.004	18.3455
2900.000000	100.960	18.1267
2950.000000	100.928	17.9515
3000.000000	100.909	17.7981
3040.000000	100.901	17.6803
3070.000000	100.899	17.5900
3110.000000	100.904	17.4607
3150.000000	100.917	17.3176
3200.000000	100.947	17.1152
3250.000000	100.987	16.8782
3300.000000	101.029	16.6023
3350.000000	101.073	16.2855
3400.000000	101.116	15.9290
3450.000000	101.157	15.5356
3500.000000	101.193	15.1072
3550.000000	101.223	14.6500
3600.000000	101.246	14.1710
3650.000000	101.261	13.6738
3700.000000	101.267	13.1663
3750.000000	101.264	12.6556
3820.000000	101.243	11.9487
3870.000000	101.216	11.4637
3950.000000	101.151	10.7439
4000.000000	101.090	10.3387
4060.000000	100.992	9.9098
4120.000000	100.874	9.5519
4180.000000	100.748	9.2739
4250.000000	100.594	9.0634
4310.000000	100.458	8.9894
4370.000000	100.321	9.0207
4440.000000	100.163	9.1898
4500.000000	100.032	9.4441
4550.000000	99.928	9.7239
4620.000000	99.791	10.1947
4680.000000	99.681	10.6514
4750.000000	99.557	11.2357
4820.000000	99.438	11.8905
4870.000000	99.356	12.4194
4940.000000	99.252	13.2648
5000.000000	99.179	14.0891
5080.000000	99.114	15.3105
5150.000000	99.092	16.4580
5220.000000	99.103	17.6359
5300.000000	99.160	18.9645
5380.000000	99.262	20.1975
5450.000000	99.387	21.1171
5520.000000	99.539	21.8156
5600.000000	99.731	22.2765
5700.000000	99.967	22.3026
5800.000000	100.165	21.7948
5900.000000	100.303	20.9426
6000.000000	100.378	19.9609
6080.000000	100.401	19.1893
6150.000000	100.400	18.5629
6220.000000	100.381	17.9962
6300.000000	100.338	17.4316
6400.000000	100.254	16.8731
6500.000000	100.152	16.4958
6600.000000	100.044	16.2841
6700.000000	99.939	16.2230
6800.000000	99.844	16.3039
6900.000000	99.766	16.5196
7000.000000	99.716	16.8552
7100.000000	99.705	17.2646
7200.000000	99.739	17.6612
7300.000000	99.820	17.9434
7400.000000	99.947	18.0298
7500.000000	100.124	17.7636
7620.000000	100.375	16.7067
7750.000000	100.659	14.5447
7880.000000	100.910	11.0195
8000.000000	101.015	6.3824
8120.000000	100.876	0.6658
8250.000000	100.318	-5.8463
8380.000000	99.257	-11.0837
8500.000000	97.885	-12.1378
8620.000000	96.865	-5.9319
8750.000000	97.203	-1.6022
8850.000000	97.116	-5.4928
9000.000000	95.924	-8.2277
9120.000000	94.915	-6.2337
9250.000000	94.083	-2.1172
9380.000000	93.509	2.8381
9500.000000	93.182	7.6573
9620.000000	93.027	12.4080
9750.000000	93.028	17.2239
9880.000000	93.173	21.5150
10000.000000	93.404	24.9496
10150.000000	93.798	28.5507
10300.000000	94.293	31.3335
10440.000000	94.835	32.9872
10600.000000	95.503	33.5013
10750.000000	96.112	32.5959
10900.000000	96.640	30.4791
11060.000000	97.052	27.1913
11200.000000	97.244	23.8257
11380.000000	97.262	19.5680
11500.000000	97.177	17.1324
11720.000000	96.968	13.4807
11800.000000	96.889	12.2678
12060.000000	96.577	8.4818
12200.000000	96.359	6.6372
12410.000000	95.975	4.2722
12500.000000	95.798	3.4218
12650.000000	95.495	2.2272
12800.000000	95.191	1.3065
13150.000000	94.521	0.0986
13200.000000	94.434	0.0115
13400.000000	94.120	-0.2036
13600.000000	93.877	-0.3376
13800.000000	93.710	-0.5685
14000.000000	93.606	-1.0637
14300.000000	93.543	-2.6249
14500.000000	93.548	-4.4720
14750.000000	93.539	-7.8976
15000.000000	93.409	-12.3726
15250.000000	93.093	-17.3306
15500.000000	92.607	-22.0424
15750.000000	92.034	-25.9148
16000.000000	91.532	-28.7646
16250.000000	91.291	-30.8853
16500.000000	91.378	-33.0154
16750.000000	91.810	-36.2975
17000.000000	92.557	-42.3612
17250.000000	93.426	-53.0438
17500.000000	93.976	-69.3417
17750.000000	93.658	-90.0737
18000.000000	92.141	-111.9556
18250.000000	89.472	-131.5095
18500.000000	85.895	-146.6152
18750.000000	81.622	-156.3002
19000.000000	76.757	-159.7924
19250.000000	71.299	-154.6906
19500.000000	65.610	-123.5897
19750.000000	62.403	-41.0518
20000.000000	62.641	-13.8612
