* Measurement data measured by REW V5.20.13
* Source: ASIO ASIO4ALL v2, EPOS GSX 300 1. Timing signal peak level -17.7 dBFS, measurement signal peak level -17.8 dBFS
* Format: 256k Log Swept Sine, 1 sweep using an acoustic timing reference
* Dated: 2023. 10. 22 ¿ÀÀü 2:00:10
* REW Settings:
*  C-weighting compensation: Off
*  Target level: 75.0 dB
* Note: AptX Adaptive 24/96 with BTD600 // Firmware 1.8.5; Delay -0.0770 ms (-26 mm, -1.04 in) using estimated IR delay relative to Acoustic reference played from refL.wav with no timing offset Clock adjustment: -15.4 ppm
* Measurement: L
* Smoothing: 1/24 octave
* Frequency Step: 1/48 octave
* Start Frequency: 1.000 Hz
*
* Freq(Hz)	SPL(dB)	Phase(degrees)
1.000000	39.189	-126.6042
1.015000	38.935	-130.6467
1.030000	38.726	-134.6383
1.044000	38.575	-138.3056
1.060000	38.460	-142.4133
1.075000	38.414	-146.1692
1.090000	38.432	-149.8187
1.106000	38.527	-153.6015
1.120000	38.674	-156.9348
1.138000	38.946	-161.2771
1.150000	39.175	-164.2003
1.172000	39.683	-169.6010
1.180000	39.895	-171.5737
1.206000	40.666	-177.9954
1.220000	41.129	178.5521
1.241000	41.875	173.4002
1.250000	42.210	171.2076
1.265000	42.787	167.5805
1.280000	43.382	163.9957
1.315000	44.810	155.8456
1.320000	45.016	154.7108
1.340000	45.839	150.2583
1.360000	46.650	145.9609
1.380000	47.437	141.8401
1.400000	48.190	137.9171
1.430000	49.229	132.4505
1.450000	49.844	129.1157
1.475000	50.515	125.3304
1.500000	51.138	121.9583
1.525000	51.733	118.9612
1.550000	52.302	116.3021
1.575000	52.847	113.9444
1.600000	53.369	111.8513
1.625000	53.872	109.9859
1.650000	54.358	108.3115
1.675000	54.827	106.7913
1.700000	55.284	105.3885
1.725000	55.729	104.0664
1.750000	56.166	102.7881
1.775000	56.595	101.5168
1.800000	57.020	100.2159
1.825000	57.443	98.8484
1.850000	57.861	97.4506
1.875000	58.264	96.1712
1.900000	58.654	95.0033
1.925000	59.032	93.9327
1.950000	59.398	92.9455
1.975000	59.753	92.0274
2.000000	60.099	91.1644
2.030000	60.503	90.1816
2.060000	60.897	89.2334
2.090000	61.282	88.2954
2.120000	61.661	87.3433
2.140000	61.911	86.6886
2.180000	62.406	85.2990
2.200000	62.652	84.5499
2.240000	63.134	82.9949
2.270000	63.484	81.8059
2.300000	63.826	80.6045
2.330000	64.160	79.3969
2.360000	64.486	78.1894
2.400000	64.911	76.5904
2.430000	65.223	75.4076
2.470000	65.631	73.8644
2.500000	65.933	72.7406
2.540000	66.330	71.2988
2.580000	66.722	69.9347
2.620000	67.105	68.6453
2.650000	67.385	67.7196
2.690000	67.752	66.5306
2.720000	68.021	65.6661
2.760000	68.374	64.5396
2.800000	68.720	63.4319
2.850000	69.143	62.0546
2.900000	69.559	60.6630
2.950000	69.967	59.2369
3.000000	70.366	57.7985
3.040000	70.678	56.6476
3.070000	70.907	55.7863
3.110000	71.209	54.6428
3.150000	71.504	53.5075
3.200000	71.868	52.1046
3.250000	72.224	50.7250
3.300000	72.574	49.3745
3.350000	72.918	48.0535
3.400000	73.253	46.7571
3.450000	73.581	45.4824
3.500000	73.902	44.2258
3.550000	74.217	42.9841
3.600000	74.526	41.7542
3.650000	74.830	40.5326
3.700000	75.129	39.3192
3.750000	75.421	38.1193
3.820000	75.819	36.4611
3.870000	76.097	35.2908
3.950000	76.531	33.4402
4.000000	76.797	32.2959
4.060000	77.110	30.9336
4.120000	77.415	29.5834
4.180000	77.713	28.2466
4.250000	78.052	26.7067
4.310000	78.336	25.4056
4.370000	78.614	24.1238
4.440000	78.933	22.6555
4.500000	79.199	21.4204
4.550000	79.416	20.4058
4.620000	79.713	19.0043
4.680000	79.963	17.8176
4.750000	80.249	16.4462
4.820000	80.528	15.0869
4.870000	80.724	14.1255
4.940000	80.992	12.7937
5.000000	81.217	11.6666
5.080000	81.510	10.1860
5.150000	81.762	8.9131
5.220000	82.008	7.6632
5.300000	82.283	6.2601
5.380000	82.551	4.8793
5.450000	82.780	3.6857
5.520000	83.006	2.5027
5.600000	83.258	1.1667
5.700000	83.564	-0.4777
5.800000	83.862	-2.0944
5.900000	84.152	-3.6838
6.000000	84.433	-5.2440
6.080000	84.653	-6.4728
6.150000	84.841	-7.5349
6.220000	85.025	-8.5859
6.300000	85.231	-9.7737
6.400000	85.482	-11.2368
6.500000	85.726	-12.6758
6.600000	85.963	-14.0903
6.700000	86.193	-15.4808
6.800000	86.417	-16.8470
6.900000	86.634	-18.1885
7.000000	86.846	-19.5045
7.100000	87.052	-20.7947
7.200000	87.252	-22.0602
7.300000	87.448	-23.3018
7.400000	87.639	-24.5193
7.500000	87.825	-25.7120
7.620000	88.042	-27.1133
7.750000	88.272	-28.5974
7.880000	88.496	-30.0430
8.000000	88.697	-31.3494
8.120000	88.895	-32.6339
8.250000	89.104	-33.9969
8.380000	89.308	-35.3365
8.500000	89.492	-36.5566
8.620000	89.672	-37.7585
8.750000	89.862	-39.0436
8.850000	90.005	-40.0223
9.000000	90.213	-41.4729
9.120000	90.375	-42.6179
9.250000	90.547	-43.8435
9.380000	90.714	-45.0535
9.500000	90.863	-46.1542
9.620000	91.005	-47.2384
9.750000	91.154	-48.3953
9.880000	91.294	-49.5310
10.000000	91.415	-50.5595
10.150000	91.556	-51.8193
10.300000	91.689	-53.0502
10.440000	91.806	-54.1719
10.600000	91.932	-55.4253
10.750000	92.048	-56.5743
10.900000	92.160	-57.6987
11.060000	92.278	-58.8773
11.200000	92.378	-59.8897
11.380000	92.504	-61.1709
11.500000	92.586	-62.0132
11.720000	92.731	-63.5330
11.800000	92.782	-64.0784
12.060000	92.943	-65.8234
12.200000	93.028	-66.7444
12.410000	93.153	-68.1011
12.500000	93.207	-68.6726
12.650000	93.299	-69.6121
12.800000	93.390	-70.5354
13.150000	93.601	-72.6279
13.200000	93.631	-72.9207
13.400000	93.746	-74.0752
13.600000	93.859	-75.2082
13.800000	93.969	-76.3209
14.000000	94.075	-77.4150
14.300000	94.229	-79.0218
14.500000	94.327	-80.0691
14.750000	94.445	-81.3490
15.000000	94.558	-82.5956
15.250000	94.668	-83.8080
15.500000	94.774	-84.9894
15.750000	94.877	-86.1420
16.000000	94.979	-87.2704
16.250000	95.078	-88.3774
16.500000	95.175	-89.4638
16.750000	95.269	-90.5291
17.000000	95.359	-91.5698
17.250000	95.445	-92.5845
17.500000	95.529	-93.5709
17.750000	95.609	-94.5303
18.000000	95.688	-95.4651
18.250000	95.766	-96.3785
18.500000	95.841	-97.2758
18.750000	95.915	-98.1582
19.000000	95.987	-99.0270
19.250000	96.055	-99.8807
19.500000	96.122	-100.7173
19.750000	96.186	-101.5350
20.000000	96.248	-102.3328
20.299999	96.321	-103.2668
20.600000	96.392	-104.1797
20.900000	96.462	-105.0771
21.200001	96.530	-105.9629
21.400000	96.574	-106.5468
21.799999	96.657	-107.6935
22.000000	96.696	-108.2532
22.400000	96.772	-109.3396
22.700001	96.827	-110.1248
23.000000	96.882	-110.8885
23.299999	96.936	-111.6375
23.600000	96.990	-112.3768
24.000000	97.060	-113.3519
24.299999	97.110	-114.0739
24.700001	97.174	-115.0183
25.000000	97.220	-115.7088
25.400000	97.279	-116.6044
25.799999	97.337	-117.4754
26.200001	97.393	-118.3284
26.500000	97.434	-118.9576
26.900000	97.486	-119.7802
27.200001	97.523	-120.3806
27.600000	97.571	-121.1548
28.000000	97.620	-121.9015
28.500000	97.683	-122.8157
29.000000	97.746	-123.7392
29.500000	97.805	-124.6810
30.000000	97.855	-125.6125
30.400000	97.889	-126.3218
30.700001	97.914	-126.8262
31.100000	97.949	-127.4722
31.500000	97.987	-128.1104
32.000000	98.036	-128.9274
32.500000	98.079	-129.7609
33.000000	98.115	-130.5642
33.500000	98.148	-131.3042
34.000000	98.187	-132.0011
34.500000	98.231	-132.7111
35.000000	98.274	-133.4648
35.500000	98.306	-134.2357
36.000000	98.328	-134.9621
36.500000	98.344	-135.5980
37.000000	98.364	-136.1422
37.500000	98.396	-136.6376
38.200001	98.457	-137.3618
38.700001	98.505	-137.9506
39.500000	98.568	-138.9816
40.000000	98.598	-139.6198
40.599998	98.628	-140.3433
41.200001	98.660	-141.0391
41.799999	98.691	-141.7348
42.500000	98.723	-142.5462
43.099998	98.746	-143.2275
43.700001	98.768	-143.8967
44.400002	98.789	-144.6643
45.000000	98.803	-145.2997
45.500000	98.813	-145.8060
46.200001	98.824	-146.4775
46.799999	98.831	-147.0131
47.500000	98.841	-147.5753
48.200001	98.856	-148.0745
48.700001	98.874	-148.4143
49.400002	98.906	-148.9121
50.000000	98.936	-149.3937
50.799999	98.965	-150.1201
51.500000	98.974	-150.7729
52.200001	98.975	-151.3777
53.000000	98.977	-152.0229
53.799999	98.979	-152.6732
54.500000	98.977	-153.2382
55.200001	98.972	-153.7756
56.000000	98.967	-154.3647
57.000000	98.963	-155.0948
58.000000	98.958	-155.8210
59.000000	98.952	-156.5224
60.000000	98.949	-157.2131
60.799999	98.946	-157.7796
61.500000	98.938	-158.2638
62.200001	98.929	-158.7106
63.000000	98.922	-159.1835
64.000000	98.918	-159.7661
65.000000	98.913	-160.3315
66.000000	98.905	-160.8694
67.000000	98.893	-161.3768
68.000000	98.885	-161.8363
69.000000	98.885	-162.3518
70.000000	98.874	-162.9110
71.000000	98.856	-163.3956
72.000000	98.843	-163.8257
73.000000	98.833	-164.2292
74.000000	98.826	-164.6025
75.000000	98.823	-164.9448
76.199997	98.828	-165.3605
77.500000	98.836	-165.8780
78.800003	98.836	-166.4333
80.000000	98.830	-166.9449
81.199997	98.820	-167.4280
82.500000	98.808	-167.9285
83.800003	98.793	-168.4199
85.000000	98.778	-168.8492
86.199997	98.762	-169.2661
87.500000	98.745	-169.6970
88.500000	98.733	-170.0280
90.000000	98.715	-170.5298
91.199997	98.700	-170.9119
92.500000	98.685	-171.3152
93.800003	98.667	-171.7087
95.000000	98.650	-172.0594
96.199997	98.632	-172.4003
97.500000	98.613	-172.7565
98.800003	98.595	-173.1139
100.000000	98.577	-173.4374
101.500000	98.555	-173.8329
103.000000	98.531	-174.2362
104.400002	98.505	-174.5997
106.000000	98.477	-174.9964
107.500000	98.450	-175.3572
109.000000	98.422	-175.6747
110.599998	98.398	-175.9866
112.000000	98.376	-176.2625
113.800003	98.348	-176.6070
115.000000	98.331	-176.8397
117.199997	98.302	-177.2956
118.000000	98.292	-177.4710
120.599998	98.257	-178.0493
122.000000	98.236	-178.3517
124.099998	98.204	-178.8019
125.000000	98.191	-178.9916
126.500000	98.172	-179.2952
128.000000	98.156	-179.5776
131.500000	98.122	179.7781
132.000000	98.116	179.6896
134.000000	98.090	179.3529
136.000000	98.064	179.0295
138.000000	98.038	178.6998
140.000000	98.006	178.3956
143.000000	97.956	178.0299
145.000000	97.924	177.8369
147.500000	97.886	177.6403
150.000000	97.852	177.4910
152.500000	97.827	177.4072
155.000000	97.822	177.3768
157.500000	97.839	177.2853
160.000000	97.859	177.0256
162.500000	97.863	176.6451
165.000000	97.852	176.2098
167.500000	97.825	175.7773
170.000000	97.788	175.3860
172.500000	97.748	175.0271
175.000000	97.709	174.6937
177.500000	97.667	174.3931
180.000000	97.625	174.1052
182.500000	97.583	173.8068
185.000000	97.538	173.5097
187.500000	97.492	173.2379
190.000000	97.447	172.9941
192.500000	97.401	172.7721
195.000000	97.353	172.5729
197.500000	97.305	172.3837
200.000000	97.261	172.2051
203.000000	97.218	172.0093
206.000000	97.180	171.8334
209.000000	97.144	171.6544
212.000000	97.110	171.4440
214.000000	97.087	171.2943
218.000000	97.038	170.9947
220.000000	97.012	170.8397
224.000000	96.958	170.5387
227.000000	96.917	170.3382
230.000000	96.875	170.1500
233.000000	96.830	169.9664
236.000000	96.785	169.7880
240.000000	96.723	169.5718
243.000000	96.675	169.4315
247.000000	96.615	169.2727
250.000000	96.570	169.1617
254.000000	96.505	169.0219
258.000000	96.437	168.8899
262.000000	96.371	168.7778
265.000000	96.324	168.6970
269.000000	96.264	168.5856
272.000000	96.219	168.5042
276.000000	96.158	168.3984
280.000000	96.099	168.2965
285.000000	96.025	168.1678
290.000000	95.949	168.0527
295.000000	95.873	167.9552
300.000000	95.797	167.8533
304.000000	95.736	167.7830
307.000000	95.690	167.7404
311.000000	95.632	167.6910
315.000000	95.576	167.6489
320.000000	95.512	167.6102
325.000000	95.453	167.5799
330.000000	95.396	167.5526
335.000000	95.339	167.5372
340.000000	95.282	167.5291
345.000000	95.225	167.5292
350.000000	95.170	167.5367
355.000000	95.116	167.5549
360.000000	95.062	167.5832
365.000000	95.008	167.6021
370.000000	94.954	167.6209
375.000000	94.901	167.6609
382.000000	94.829	167.7323
387.000000	94.779	167.7833
395.000000	94.700	167.8860
400.000000	94.651	167.9589
406.000000	94.593	168.0482
412.000000	94.535	168.1305
418.000000	94.478	168.2075
425.000000	94.416	168.2993
431.000000	94.364	168.3864
437.000000	94.314	168.4634
444.000000	94.255	168.5098
450.000000	94.200	168.5080
455.000000	94.149	168.4906
462.000000	94.057	168.5027
468.000000	93.968	168.6450
475.000000	93.876	168.9913
482.000000	93.810	169.3783
487.000000	93.773	169.6125
494.000000	93.728	169.8688
500.000000	93.688	170.0272
508.000000	93.627	170.1944
515.000000	93.561	170.3735
522.000000	93.488	170.6611
530.000000	93.415	171.1105
538.000000	93.363	171.5695
545.000000	93.325	171.9260
552.000000	93.288	172.2518
560.000000	93.246	172.5992
570.000000	93.194	173.0209
580.000000	93.141	173.4479
590.000000	93.090	173.8818
600.000000	93.040	174.3292
608.000000	93.001	174.6915
615.000000	92.967	175.0137
622.000000	92.935	175.3374
630.000000	92.901	175.7020
640.000000	92.866	176.1552
650.000000	92.836	176.6227
660.000000	92.808	177.1037
670.000000	92.783	177.5900
680.000000	92.759	178.0775
690.000000	92.738	178.5765
700.000000	92.720	179.0835
710.000000	92.703	179.5825
720.000000	92.687	-179.9223
730.000000	92.673	-179.4255
740.000000	92.663	-178.9252
750.000000	92.655	-178.4279
762.000000	92.649	-177.8457
775.000000	92.646	-177.2129
788.000000	92.645	-176.5738
800.000000	92.642	-175.9935
812.000000	92.636	-175.4355
825.000000	92.630	-174.8387
838.000000	92.624	-174.2384
850.000000	92.621	-173.6876
862.000000	92.619	-173.1479
875.000000	92.621	-172.5759
885.000000	92.624	-172.1469
900.000000	92.628	-171.5171
912.000000	92.634	-171.0228
925.000000	92.643	-170.4943
938.000000	92.653	-169.9752
950.000000	92.663	-169.5096
962.000000	92.672	-169.0637
975.000000	92.683	-168.5974
988.000000	92.690	-168.1344
1000.000000	92.689	-167.7116
1015.000000	92.673	-167.1961
1030.000000	92.649	-166.6984
1044.000000	92.625	-166.2490
1060.000000	92.598	-165.7548
1075.000000	92.573	-165.3061
1090.000000	92.549	-164.8685
1106.000000	92.526	-164.4249
1120.000000	92.507	-164.0578
1138.000000	92.482	-163.6114
1150.000000	92.466	-163.3322
1172.000000	92.439	-162.8366
1180.000000	92.429	-162.6599
1206.000000	92.392	-162.1164
1220.000000	92.372	-161.8387
1241.000000	92.349	-161.4274
1250.000000	92.344	-161.2504
1265.000000	92.344	-160.9557
1280.000000	92.351	-160.6578
1315.000000	92.371	-159.9625
1320.000000	92.374	-159.8645
1340.000000	92.384	-159.4830
1360.000000	92.393	-159.1119
1380.000000	92.401	-158.7422
1400.000000	92.409	-158.3799
1430.000000	92.416	-157.8587
1450.000000	92.420	-157.5150
1475.000000	92.423	-157.0958
1500.000000	92.423	-156.6866
1525.000000	92.420	-156.2845
1550.000000	92.415	-155.8761
1575.000000	92.410	-155.4597
1600.000000	92.408	-155.0428
1625.000000	92.406	-154.6337
1650.000000	92.405	-154.2316
1675.000000	92.405	-153.8267
1700.000000	92.403	-153.4219
1725.000000	92.398	-153.0228
1750.000000	92.391	-152.6161
1775.000000	92.382	-152.1941
1800.000000	92.373	-151.7594
1825.000000	92.364	-151.3241
1850.000000	92.354	-150.9012
1875.000000	92.343	-150.4901
1900.000000	92.329	-150.0728
1925.000000	92.313	-149.6535
1950.000000	92.294	-149.2342
1975.000000	92.272	-148.8031
2000.000000	92.250	-148.3558
2030.000000	92.223	-147.8108
2060.000000	92.190	-147.2406
2090.000000	92.152	-146.6206
2120.000000	92.111	-145.9067
2140.000000	92.087	-145.3449
2180.000000	92.059	-144.0034
2200.000000	92.064	-143.2524
2240.000000	92.116	-141.7975
2270.000000	92.173	-140.8754
2300.000000	92.225	-140.0046
2330.000000	92.290	-139.0527
2360.000000	92.402	-138.1297
2400.000000	92.609	-137.4739
2430.000000	92.746	-137.5573
2470.000000	92.845	-138.0807
2500.000000	92.857	-138.5026
2540.000000	92.812	-138.9158
2580.000000	92.725	-139.0944
2620.000000	92.614	-139.0463
2650.000000	92.521	-138.8741
2690.000000	92.390	-138.4617
2720.000000	92.290	-138.0251
2760.000000	92.160	-137.2900
2800.000000	92.034	-136.4111
2850.000000	91.888	-135.1620
2900.000000	91.758	-133.7938
2950.000000	91.643	-132.3640
3000.000000	91.542	-130.9039
3040.000000	91.471	-129.7179
3070.000000	91.421	-128.8157
3110.000000	91.360	-127.5988
3150.000000	91.311	-126.3749
3200.000000	91.266	-124.8610
3250.000000	91.232	-123.3977
3300.000000	91.205	-121.9870
3350.000000	91.182	-120.6160
3400.000000	91.159	-119.2831
3450.000000	91.129	-117.9849
3500.000000	91.093	-116.6974
3550.000000	91.053	-115.3824
3600.000000	91.015	-114.0286
3650.000000	90.981	-112.6832
3700.000000	90.947	-111.3943
3750.000000	90.902	-110.1495
3820.000000	90.808	-108.3579
3870.000000	90.724	-106.9449
3950.000000	90.589	-104.3752
4000.000000	90.510	-102.6272
4060.000000	90.417	-100.4526
4120.000000	90.332	-98.2443
4180.000000	90.257	-96.0447
4250.000000	90.184	-93.4946
4310.000000	90.134	-91.3093
4370.000000	90.096	-89.1182
4440.000000	90.064	-86.5818
4500.000000	90.043	-84.4584
4550.000000	90.030	-82.7175
4620.000000	90.019	-80.3015
4680.000000	90.014	-78.2495
4750.000000	90.010	-75.8977
4820.000000	90.007	-73.5974
4870.000000	90.007	-71.9802
4940.000000	90.004	-69.7495
5000.000000	90.000	-67.8403
5080.000000	89.998	-65.2252
5150.000000	90.004	-62.8511
5220.000000	90.021	-60.4399
5300.000000	90.055	-57.6772
5380.000000	90.105	-54.9265
5450.000000	90.161	-52.5323
5520.000000	90.231	-50.1559
5600.000000	90.323	-47.5279
5700.000000	90.438	-44.5018
5800.000000	90.548	-41.7194
5900.000000	90.647	-39.0412
6000.000000	90.720	-36.4056
6080.000000	90.758	-34.2680
6150.000000	90.779	-32.3325
6220.000000	90.791	-30.3267
6300.000000	90.793	-27.9139
6400.000000	90.784	-24.6577
6500.000000	90.787	-21.1285
6600.000000	90.822	-17.3466
6700.000000	90.896	-13.3726
6800.000000	91.019	-9.2230
6900.000000	91.205	-4.8751
7000.000000	91.476	-0.4177
7100.000000	91.847	4.0027
7200.000000	92.332	8.3033
7300.000000	92.951	12.3124
7400.000000	93.713	15.7302
7500.000000	94.621	18.2504
7620.000000	95.893	19.4172
7750.000000	97.334	17.0367
7880.000000	98.442	9.9259
8000.000000	98.831	0.4896
8120.000000	98.540	-8.7134
8250.000000	97.660	-15.7124
8380.000000	96.517	-18.9421
8500.000000	95.460	-19.2715
8620.000000	94.511	-17.8573
8750.000000	93.642	-15.0518
8850.000000	93.082	-12.3845
9000.000000	92.392	-7.9618
9120.000000	91.953	-4.2175
9250.000000	91.571	-0.0912
9380.000000	91.275	3.9855
9500.000000	91.072	7.6314
9620.000000	90.926	11.0928
9750.000000	90.810	14.5944
9880.000000	90.708	17.8523
10000.000000	90.609	20.7471
10150.000000	90.471	24.3993
10300.000000	90.342	28.3861
10440.000000	90.299	32.3824
10600.000000	90.352	36.6942
10750.000000	90.437	40.3407
10900.000000	90.536	43.8587
11060.000000	90.697	47.4594
11200.000000	90.906	50.2485
11380.000000	91.247	53.0641
11500.000000	91.504	54.4326
11720.000000	92.012	55.8324
11800.000000	92.200	55.9131
12060.000000	92.730	54.2938
12200.000000	92.886	52.3237
12410.000000	92.888	48.6324
12500.000000	92.807	46.9597
12650.000000	92.579	44.1596
12800.000000	92.242	41.2804
13150.000000	90.889	35.2725
13200.000000	90.639	34.7648
13400.000000	89.592	33.7867
13600.000000	88.534	34.4435
13800.000000	87.568	36.4208
14000.000000	86.747	39.0846
14300.000000	85.727	43.6678
14500.000000	85.183	47.1846
14750.000000	84.750	51.9105
15000.000000	84.636	56.2422
15250.000000	84.830	59.4074
15500.000000	85.303	60.8134
15750.000000	86.004	59.5819
16000.000000	86.833	54.6279
16250.000000	87.610	45.7406
16500.000000	88.072	33.5943
16750.000000	88.071	19.3445
17000.000000	87.649	4.2994
17250.000000	86.930	-11.1458
17500.000000	85.966	-27.5399
17750.000000	84.673	-45.2399
18000.000000	82.904	-63.4992
18250.000000	80.595	-80.7727
18500.000000	77.824	-96.0099
18750.000000	74.750	-109.4086
19000.000000	71.486	-122.4151
19250.000000	68.011	-137.0875
19500.000000	64.219	-156.1424
19750.000000	60.022	179.8719
