* Measurement data measured by REW V5.30
* Source: ASIO ASIO4ALL v2, EPOS GSX 300 1
* Format: 256k Log Swept Sine, 1 sweep at -12.7 dBFS with no timing reference
* Dated: 2023. 12. 28 ¿ÀÀü 1:42:28
* REW Settings:
*  C-weighting compensation: Off
*  Target level: 75.0 dB
* Note: ; 
* Measurement: L Grey Shallow Insertion
* Smoothing: 1/24 octave
* Frequency Step: 1/48 octave
* Start Frequency: 1.000 Hz
*
* Freq(Hz)	SPL(dB)	Phase(degrees)
1.000000	60.618	42.5627
1.015000	61.007	42.5087
1.030000	61.389	42.4104
1.044000	61.738	42.2798
1.060000	62.128	42.0864
1.075000	62.482	41.8641
1.090000	62.824	41.6057
1.106000	63.178	41.3038
1.120000	63.482	41.0381
1.138000	63.865	40.7066
1.150000	64.117	40.4912
1.172000	64.571	40.1037
1.180000	64.734	39.9641
1.206000	65.255	39.5102
1.220000	65.530	39.2636
1.241000	65.936	38.8877
1.250000	66.108	38.7236
1.265000	66.392	38.4453
1.280000	66.672	38.1603
1.315000	67.312	37.4642
1.320000	67.402	37.3608
1.340000	67.759	36.9367
1.360000	68.110	36.4948
1.380000	68.456	36.0339
1.400000	68.798	35.5534
1.430000	69.302	34.7944
1.450000	69.633	34.2632
1.475000	70.041	33.5816
1.500000	70.439	32.9080
1.525000	70.827	32.2522
1.550000	71.205	31.6103
1.575000	71.575	30.9770
1.600000	71.936	30.3480
1.625000	72.289	29.7194
1.650000	72.635	29.0876
1.675000	72.974	28.4497
1.700000	73.307	27.8029
1.725000	73.634	27.1450
1.750000	73.956	26.4740
1.775000	74.274	25.7881
1.800000	74.587	25.0861
1.825000	74.897	24.3684
1.850000	75.202	23.6423
1.875000	75.501	22.9182
1.900000	75.793	22.1998
1.925000	76.079	21.4874
1.950000	76.360	20.7804
1.975000	76.635	20.0782
2.000000	76.904	19.3801
2.030000	77.222	18.5467
2.060000	77.532	17.7166
2.090000	77.837	16.8881
2.120000	78.137	16.0597
2.140000	78.334	15.5067
2.180000	78.723	14.3970
2.200000	78.915	13.8403
2.240000	79.290	12.7286
2.270000	79.564	11.8999
2.300000	79.832	11.0771
2.330000	80.094	10.2606
2.360000	80.351	9.4507
2.400000	80.686	8.3807
2.430000	80.931	7.5855
2.470000	81.252	6.5340
2.500000	81.489	5.7512
2.540000	81.799	4.7140
2.580000	82.103	3.6827
2.620000	82.400	2.6565
2.650000	82.617	1.8912
2.690000	82.900	0.8782
2.720000	83.107	0.1249
2.760000	83.378	-0.8698
2.800000	83.643	-1.8528
2.850000	83.967	-3.0646
2.900000	84.283	-4.2577
2.950000	84.592	-5.4347
3.000000	84.893	-6.6006
3.040000	85.127	-7.5253
3.070000	85.299	-8.2132
3.110000	85.524	-9.1222
3.150000	85.744	-10.0206
3.200000	86.014	-11.1277
3.250000	86.278	-12.2164
3.300000	86.537	-13.2873
3.350000	86.789	-14.3447
3.400000	87.035	-15.3910
3.450000	87.275	-16.4252
3.500000	87.510	-17.4461
3.550000	87.739	-18.4523
3.600000	87.964	-19.4432
3.650000	88.184	-20.4186
3.700000	88.401	-21.3808
3.750000	88.613	-22.3324
3.820000	88.901	-23.6472
3.870000	89.102	-24.5729
3.950000	89.416	-26.0294
4.000000	89.608	-26.9238
4.060000	89.834	-27.9825
4.120000	90.054	-29.0282
4.180000	90.270	-30.0616
4.250000	90.515	-31.2508
4.310000	90.721	-32.2555
4.370000	90.922	-33.2466
4.440000	91.153	-34.3877
4.500000	91.345	-35.3552
4.550000	91.503	-36.1540
4.620000	91.719	-37.2600
4.680000	91.900	-38.1959
4.750000	92.107	-39.2736
4.820000	92.309	-40.3383
4.870000	92.451	-41.0924
4.940000	92.644	-42.1386
5.000000	92.807	-43.0253
5.080000	93.019	-44.1918
5.150000	93.200	-45.1982
5.220000	93.376	-46.1942
5.300000	93.573	-47.3207
5.380000	93.765	-48.4321
5.450000	93.928	-49.3905
5.520000	94.089	-50.3360
5.600000	94.267	-51.4043
5.700000	94.483	-52.7216
5.800000	94.693	-54.0149
5.900000	94.896	-55.2828
6.000000	95.093	-56.5301
6.080000	95.246	-57.5134
6.150000	95.377	-58.3617
6.220000	95.505	-59.1982
6.300000	95.649	-60.1413
6.400000	95.824	-61.3032
6.500000	95.993	-62.4452
6.600000	96.159	-63.5659
6.700000	96.320	-64.6676
6.800000	96.476	-65.7519
6.900000	96.629	-66.8181
7.000000	96.778	-67.8660
7.100000	96.923	-68.8979
7.200000	97.064	-69.9142
7.300000	97.202	-70.9143
7.400000	97.337	-71.8991
7.500000	97.468	-72.8700
7.620000	97.622	-74.0165
7.750000	97.784	-75.2357
7.880000	97.940	-76.4336
8.000000	98.081	-77.5203
8.120000	98.218	-78.5889
8.250000	98.362	-79.7280
8.380000	98.502	-80.8477
8.500000	98.628	-81.8642
8.620000	98.750	-82.8657
8.750000	98.879	-83.9336
8.850000	98.975	-84.7430
9.000000	99.117	-85.9390
9.120000	99.226	-86.8799
9.250000	99.342	-87.8834
9.380000	99.454	-88.8716
9.500000	99.555	-89.7696
9.620000	99.654	-90.6543
9.750000	99.757	-91.5985
9.880000	99.854	-92.5274
10.000000	99.934	-93.3716
10.150000	100.025	-94.4098
10.300000	100.108	-95.4288
10.440000	100.181	-96.3633
10.600000	100.259	-97.4126
10.750000	100.331	-98.3787
10.900000	100.400	-99.3286
11.060000	100.471	-100.3248
11.200000	100.532	-101.1827
11.380000	100.607	-102.2676
11.500000	100.655	-102.9800
11.720000	100.740	-104.2639
11.800000	100.770	-104.7238
12.060000	100.863	-106.1933
12.200000	100.911	-106.9685
12.410000	100.982	-108.1105
12.500000	101.015	-108.5923
12.650000	101.072	-109.3853
12.800000	101.130	-110.1660
13.150000	101.262	-111.9415
13.200000	101.280	-112.1901
13.400000	101.352	-113.1728
13.600000	101.421	-114.1374
13.800000	101.487	-115.0850
14.000000	101.551	-116.0164
14.300000	101.643	-117.3844
14.500000	101.701	-118.2774
14.750000	101.770	-119.3725
15.000000	101.836	-120.4442
15.250000	101.899	-121.4928
15.500000	101.959	-122.5191
15.750000	102.016	-123.5242
16.000000	102.072	-124.5090
16.250000	102.127	-125.4747
16.500000	102.180	-126.4221
16.750000	102.232	-127.3520
17.000000	102.281	-128.2651
17.250000	102.328	-129.1619
17.500000	102.373	-130.0430
17.750000	102.415	-130.9090
18.000000	102.456	-131.7603
18.250000	102.495	-132.5968
18.500000	102.532	-133.4184
18.750000	102.566	-134.2245
19.000000	102.599	-135.0148
19.250000	102.631	-135.7891
19.500000	102.661	-136.5479
19.750000	102.690	-137.2924
20.000000	102.719	-138.0240
20.299999	102.751	-138.8872
20.600000	102.783	-139.7363
20.900000	102.812	-140.5720
21.200001	102.840	-141.3934
21.400000	102.857	-141.9321
21.799999	102.888	-142.9864
22.000000	102.903	-143.5015
22.400000	102.931	-144.5092
22.700001	102.951	-145.2478
23.000000	102.969	-145.9745
23.299999	102.987	-146.6909
23.600000	103.003	-147.3973
24.000000	103.023	-148.3220
24.299999	103.036	-149.0008
24.700001	103.051	-149.8851
25.000000	103.061	-150.5334
25.400000	103.073	-151.3807
25.799999	103.084	-152.2117
26.200001	103.093	-153.0276
26.500000	103.099	-153.6290
26.900000	103.105	-154.4152
27.200001	103.109	-154.9927
27.600000	103.113	-155.7471
28.000000	103.116	-156.4862
28.500000	103.119	-157.3918
29.000000	103.119	-158.2774
29.500000	103.118	-159.1393
30.000000	103.115	-159.9756
30.400000	103.112	-160.6280
30.700001	103.109	-161.1095
31.100000	103.105	-161.7430
31.500000	103.101	-162.3671
32.000000	103.095	-163.1324
32.500000	103.087	-163.8798
33.000000	103.078	-164.6106
33.500000	103.068	-165.3267
34.000000	103.057	-166.0262
34.500000	103.044	-166.7055
35.000000	103.031	-167.3647
35.500000	103.018	-168.0110
36.000000	103.006	-168.6524
36.500000	102.992	-169.2900
37.000000	102.976	-169.9171
37.500000	102.958	-170.5263
38.200001	102.931	-171.3446
38.700001	102.913	-171.9080
39.500000	102.884	-172.7853
40.000000	102.867	-173.3260
40.599998	102.846	-173.9711
41.200001	102.824	-174.6061
41.799999	102.799	-175.2215
42.500000	102.770	-175.9152
43.099998	102.746	-176.4971
43.700001	102.720	-177.0669
44.400002	102.689	-177.7099
45.000000	102.663	-178.2466
45.500000	102.641	-178.6902
46.200001	102.610	-179.3059
46.799999	102.581	-179.8212
47.500000	102.546	179.5963
48.200001	102.510	179.0338
48.700001	102.484	178.6460
49.400002	102.448	178.1213
50.000000	102.416	177.6779
50.799999	102.369	177.0824
51.500000	102.324	176.5666
52.200001	102.277	176.0676
53.000000	102.224	175.5141
53.799999	102.171	174.9787
54.500000	102.124	174.5318
55.200001	102.077	174.0986
56.000000	102.024	173.6140
57.000000	101.956	173.0285
58.000000	101.887	172.4442
59.000000	101.811	171.9014
60.000000	101.742	171.4282
60.799999	101.697	171.0141
61.500000	101.654	170.6084
62.200001	101.606	170.2130
63.000000	101.553	169.8140
64.000000	101.496	169.3634
65.000000	101.445	168.9493
66.000000	101.398	168.5704
67.000000	101.351	168.2131
68.000000	101.312	167.8946
69.000000	101.281	167.4421
70.000000	101.223	166.8980
71.000000	101.152	166.5087
72.000000	101.097	166.1656
73.000000	101.047	165.7625
74.000000	100.993	165.3700
75.000000	100.941	165.0029
76.199997	100.879	164.5834
77.500000	100.812	164.1581
78.800003	100.742	163.7370
80.000000	100.674	163.3745
81.199997	100.606	163.0244
82.500000	100.530	162.6513
83.800003	100.456	162.3071
85.000000	100.392	162.0092
86.199997	100.328	161.7111
87.500000	100.257	161.3934
88.500000	100.202	161.1581
90.000000	100.116	160.8134
91.199997	100.048	160.5573
92.500000	99.977	160.2895
93.800003	99.907	160.0327
95.000000	99.844	159.8060
96.199997	99.782	159.5914
97.500000	99.713	159.3645
98.800003	99.642	159.1542
100.000000	99.577	158.9833
101.500000	99.496	158.7848
103.000000	99.415	158.6059
104.400002	99.343	158.4555
106.000000	99.263	158.2911
107.500000	99.189	158.1317
109.000000	99.115	157.9651
110.599998	99.035	157.7950
112.000000	98.967	157.6534
113.800003	98.881	157.4944
115.000000	98.826	157.3993
117.199997	98.727	157.2343
118.000000	98.690	157.1824
120.599998	98.575	157.0287
122.000000	98.514	156.9399
124.099998	98.427	156.8029
125.000000	98.391	156.7456
126.500000	98.334	156.6582
128.000000	98.280	156.5945
131.500000	98.162	156.5011
132.000000	98.146	156.4884
134.000000	98.082	156.4454
136.000000	98.020	156.4196
138.000000	97.959	156.3898
140.000000	97.898	156.3713
143.000000	97.810	156.3862
145.000000	97.756	156.4276
147.500000	97.690	156.4963
150.000000	97.628	156.5971
152.500000	97.576	156.7388
155.000000	97.535	156.9213
157.500000	97.507	157.1255
160.000000	97.494	157.3359
162.500000	97.499	157.5097
165.000000	97.533	157.6028
167.500000	97.614	157.5356
170.000000	97.758	157.0304
172.500000	97.941	155.5322
175.000000	98.028	152.4633
177.500000	97.790	148.3940
180.000000	97.152	145.5229
182.500000	96.358	145.7400
185.000000	95.774	148.5975
187.500000	95.549	151.9635
190.000000	95.561	154.3461
192.500000	95.643	155.6155
195.000000	95.708	156.1920
197.500000	95.736	156.4354
200.000000	95.734	156.5527
203.000000	95.708	156.6562
206.000000	95.664	156.7758
209.000000	95.612	156.9137
212.000000	95.555	157.0397
214.000000	95.515	157.1327
218.000000	95.435	157.3377
220.000000	95.393	157.4449
224.000000	95.307	157.6789
227.000000	95.243	157.8606
230.000000	95.178	158.0425
233.000000	95.111	158.2386
236.000000	95.043	158.4586
240.000000	94.955	158.8323
243.000000	94.908	159.2002
247.000000	94.863	159.4313
250.000000	94.802	159.5274
254.000000	94.708	159.7927
258.000000	94.618	160.1037
262.000000	94.532	160.4017
265.000000	94.466	160.6208
269.000000	94.378	160.9116
272.000000	94.312	161.1441
276.000000	94.222	161.4760
280.000000	94.128	161.8184
285.000000	94.006	162.2825
290.000000	93.880	162.8420
295.000000	93.751	163.5273
300.000000	93.623	164.3679
304.000000	93.532	165.1908
307.000000	93.475	165.8985
311.000000	93.424	166.9370
315.000000	93.414	168.0264
320.000000	93.466	169.2690
325.000000	93.566	170.1441
330.000000	93.674	170.5749
335.000000	93.755	170.6753
340.000000	93.799	170.6318
345.000000	93.811	170.5792
350.000000	93.803	170.5826
355.000000	93.785	170.6519
360.000000	93.763	170.7601
365.000000	93.738	170.9064
370.000000	93.710	171.0807
375.000000	93.679	171.2679
382.000000	93.635	171.5587
387.000000	93.604	171.7917
395.000000	93.553	172.1961
400.000000	93.522	172.4636
406.000000	93.486	172.7977
412.000000	93.450	173.1459
418.000000	93.415	173.5132
425.000000	93.376	173.9504
431.000000	93.344	174.3312
437.000000	93.313	174.7140
444.000000	93.280	175.1628
450.000000	93.254	175.5468
455.000000	93.234	175.8772
462.000000	93.207	176.3422
468.000000	93.184	176.7344
475.000000	93.159	177.1998
482.000000	93.136	177.6649
487.000000	93.121	177.9964
494.000000	93.101	178.4555
500.000000	93.086	178.8451
508.000000	93.068	179.3623
515.000000	93.056	179.8142
522.000000	93.045	-179.7335
530.000000	93.033	-179.2150
538.000000	93.023	-178.7032
545.000000	93.015	-178.2616
552.000000	93.009	-177.8207
560.000000	93.002	-177.3197
570.000000	92.995	-176.6948
580.000000	92.989	-176.0719
590.000000	92.986	-175.4584
600.000000	92.982	-174.8646
608.000000	92.979	-174.3956
615.000000	92.978	-173.9875
622.000000	92.977	-173.5786
630.000000	92.979	-173.1167
640.000000	92.984	-172.5513
650.000000	92.992	-171.9888
660.000000	92.998	-171.4283
670.000000	93.000	-170.8796
680.000000	92.999	-170.3258
690.000000	92.994	-169.7535
700.000000	92.985	-169.1528
710.000000	92.972	-168.5187
720.000000	92.957	-167.8386
730.000000	92.940	-167.0907
740.000000	92.926	-166.2711
750.000000	92.915	-165.3827
762.000000	92.913	-164.2305
775.000000	92.930	-162.8923
788.000000	92.968	-161.5037
800.000000	93.021	-160.2261
812.000000	93.089	-158.9906
825.000000	93.177	-157.7334
838.000000	93.276	-156.5881
850.000000	93.372	-155.6273
862.000000	93.470	-154.7454
875.000000	93.575	-153.8633
885.000000	93.654	-153.2217
900.000000	93.771	-152.2989
912.000000	93.863	-151.5880
925.000000	93.963	-150.8374
938.000000	94.062	-150.0993
950.000000	94.155	-149.4248
962.000000	94.249	-148.7631
975.000000	94.353	-148.0640
988.000000	94.456	-147.3826
1000.000000	94.543	-146.7725
1015.000000	94.637	-146.0402
1030.000000	94.724	-145.3435
1044.000000	94.806	-144.7217
1060.000000	94.902	-144.0430
1075.000000	94.994	-143.4442
1090.000000	95.087	-142.8833
1106.000000	95.188	-142.3208
1120.000000	95.277	-141.8564
1138.000000	95.391	-141.3017
1150.000000	95.467	-140.9567
1172.000000	95.605	-140.3667
1180.000000	95.656	-140.1640
1206.000000	95.819	-139.5482
1220.000000	95.906	-139.2404
1241.000000	96.042	-138.8021
1250.000000	96.104	-138.6230
1265.000000	96.218	-138.3322
1280.000000	96.339	-138.0521
1315.000000	96.626	-137.4404
1320.000000	96.667	-137.3565
1340.000000	96.831	-137.0317
1360.000000	96.997	-136.7211
1380.000000	97.164	-136.4257
1400.000000	97.332	-136.1455
1430.000000	97.589	-135.7557
1450.000000	97.763	-135.5193
1475.000000	97.985	-135.2516
1500.000000	98.212	-135.0242
1525.000000	98.444	-134.8381
1550.000000	98.681	-134.7022
1575.000000	98.923	-134.6207
1600.000000	99.173	-134.5984
1625.000000	99.432	-134.6413
1650.000000	99.698	-134.7565
1675.000000	99.968	-134.9556
1700.000000	100.241	-135.2422
1725.000000	100.516	-135.6221
1750.000000	100.792	-136.1030
1775.000000	101.068	-136.6907
1800.000000	101.343	-137.3906
1825.000000	101.614	-138.2093
1850.000000	101.880	-139.1453
1875.000000	102.138	-140.2007
1900.000000	102.387	-141.3788
1925.000000	102.625	-142.6748
1950.000000	102.848	-144.0820
1975.000000	103.055	-145.5949
2000.000000	103.245	-147.2026
2030.000000	103.448	-149.2350
2060.000000	103.620	-151.3571
2090.000000	103.758	-153.5398
2120.000000	103.862	-155.7472
2140.000000	103.913	-157.2165
2180.000000	103.970	-160.1057
2200.000000	103.978	-161.5084
2240.000000	103.955	-164.1921
2270.000000	103.910	-166.0733
2300.000000	103.843	-167.8256
2330.000000	103.759	-169.4404
2360.000000	103.660	-170.9100
2400.000000	103.513	-172.6293
2430.000000	103.398	-173.7511
2470.000000	103.240	-175.0458
2500.000000	103.120	-175.8715
2540.000000	102.962	-176.7914
2580.000000	102.810	-177.5240
2620.000000	102.667	-178.0920
2650.000000	102.566	-178.4225
2690.000000	102.442	-178.7515
2720.000000	102.357	-178.9243
2760.000000	102.254	-179.0722
2800.000000	102.165	-179.1386
2850.000000	102.073	-179.1319
2900.000000	102.002	-179.0505
2950.000000	101.953	-178.9181
3000.000000	101.925	-178.7597
3040.000000	101.918	-178.6281
3070.000000	101.922	-178.5323
3110.000000	101.939	-178.4165
3150.000000	101.973	-178.3261
3200.000000	102.041	-178.2616
3250.000000	102.130	-178.2723
3300.000000	102.236	-178.3723
3350.000000	102.355	-178.5749
3400.000000	102.484	-178.8999
3450.000000	102.621	-179.3632
3500.000000	102.761	-179.9781
3550.000000	102.902	179.2444
3600.000000	103.038	178.2972
3650.000000	103.162	177.1777
3700.000000	103.270	175.8918
3750.000000	103.356	174.4551
3820.000000	103.429	172.2438
3870.000000	103.442	170.5695
3950.000000	103.384	167.8414
4000.000000	103.293	166.1846
4060.000000	103.123	164.3309
4120.000000	102.901	162.6910
4180.000000	102.646	161.3333
4250.000000	102.324	160.1743
4310.000000	102.046	159.5719
4370.000000	101.785	159.3129
4440.000000	101.523	159.3594
4500.000000	101.349	159.5697
4550.000000	101.243	159.7516
4620.000000	101.148	159.8226
4680.000000	101.097	159.5620
4750.000000	101.032	158.7897
4820.000000	100.920	157.5806
4870.000000	100.792	156.5721
4940.000000	100.537	155.1841
5000.000000	100.259	154.2051
5080.000000	99.836	153.4138
5150.000000	99.444	153.2778
5220.000000	99.058	153.6427
5300.000000	98.647	154.5903
5380.000000	98.283	155.9884
5450.000000	98.008	157.4908
5520.000000	97.776	159.1870
5600.000000	97.563	161.2974
5700.000000	97.376	164.1031
5800.000000	97.276	167.0157
5900.000000	97.267	169.9730
6000.000000	97.356	172.9030
6080.000000	97.502	175.1700
6150.000000	97.687	177.0489
6220.000000	97.927	178.7858
6300.000000	98.267	-179.4678
6400.000000	98.791	-177.7966
6500.000000	99.436	-176.9385
6600.000000	100.203	-177.2551
6700.000000	101.067	-179.2371
6800.000000	101.956	176.5591
6900.000000	102.722	169.7495
7000.000000	103.166	160.5555
7100.000000	103.118	150.0881
7200.000000	102.542	139.9737
7300.000000	101.542	131.5427
7400.000000	100.283	125.4080
7500.000000	98.923	121.5895
7620.000000	97.313	119.5632
7750.000000	95.708	119.6392
7880.000000	94.286	121.2348
8000.000000	93.127	123.5471
8120.000000	92.098	126.3884
8250.000000	91.104	129.8953
8380.000000	90.218	133.7208
8500.000000	89.485	137.4499
8620.000000	88.826	141.3030
8750.000000	88.193	145.5530
8850.000000	87.761	148.8373
9000.000000	87.193	153.7347
9120.000000	86.801	157.5854
9250.000000	86.427	161.6541
9380.000000	86.099	165.5858
9500.000000	85.832	169.0691
9620.000000	85.597	172.3792
9750.000000	85.375	175.7469
9880.000000	85.179	178.8803
10000.000000	85.016	-178.4458
10150.000000	84.828	-175.4432
10300.000000	84.634	-172.9072
10440.000000	84.414	-170.9728
10600.000000	84.078	-169.0779
10750.000000	83.667	-167.2853
10900.000000	83.176	-165.1088
11060.000000	82.612	-162.1666
11200.000000	82.120	-159.2023
11380.000000	81.485	-155.1706
11500.000000	81.037	-152.5011
11720.000000	80.023	-147.3212
11800.000000	79.556	-144.8129
12060.000000	78.007	-130.1125
12200.000000	77.661	-117.9268
12410.000000	78.307	-99.7990
12500.000000	78.903	-93.9067
12650.000000	80.029	-87.2542
12800.000000	81.097	-83.6815
13150.000000	83.115	-81.1793
13200.000000	83.347	-81.3852
13400.000000	84.046	-83.1135
13600.000000	84.424	-84.7970
13800.000000	84.693	-85.4163
14000.000000	85.093	-85.3770
14300.000000	86.174	-87.7407
14500.000000	86.994	-93.7469
14750.000000	87.459	-106.8343
15000.000000	86.848	-123.0684
15250.000000	84.927	-139.0454
15500.000000	81.657	-148.4257
15750.000000	77.891	-148.0391
16000.000000	74.419	-139.9358
16250.000000	71.634	-126.8874
16500.000000	69.589	-110.9838
16750.000000	68.196	-93.4513
17000.000000	67.410	-75.3013
17250.000000	67.223	-57.4703
17500.000000	67.593	-41.4598
17750.000000	68.294	-28.6912
18000.000000	69.065	-18.9866
18250.000000	69.796	-11.1314
18500.000000	70.518	-4.5069
18750.000000	71.250	0.9518
19000.000000	72.002	5.0904
19250.000000	72.760	7.4923
19500.000000	73.447	7.7157
19750.000000	73.945	5.6602
20000.000000	74.175	2.7957
