* Measurement data measured by REW V5.30
* Source: ASIO ASIO4ALL v2, EPOS GSX 300 1
* Format: 256k Log Swept Sine, 1 sweep at -12.7 dBFS with no timing reference
* Dated: 2023. 12. 28 ¿ÀÀü 1:24:51
* REW Settings:
*  C-weighting compensation: Off
*  Target level: 75.0 dB
* Note: ; 
* Measurement: R Grey
* Smoothing: 1/24 octave
* Frequency Step: 1/48 octave
* Start Frequency: 1.000 Hz
*
* Freq(Hz)	SPL(dB)	Phase(degrees)
1.000000	58.346	42.9469
1.015000	58.758	43.0067
1.030000	59.163	43.0144
1.044000	59.532	42.9763
1.060000	59.942	42.8818
1.075000	60.313	42.7462
1.090000	60.670	42.5692
1.106000	61.037	42.3496
1.120000	61.352	42.1533
1.138000	61.749	41.9082
1.150000	62.010	41.7485
1.172000	62.481	41.4590
1.180000	62.650	41.3537
1.206000	63.190	41.0062
1.220000	63.476	40.8137
1.241000	63.898	40.5148
1.250000	64.076	40.3823
1.265000	64.370	40.1548
1.280000	64.661	39.9181
1.315000	65.326	39.3264
1.320000	65.419	39.2371
1.340000	65.789	38.8669
1.360000	66.153	38.4756
1.380000	66.512	38.0624
1.400000	66.866	37.6268
1.430000	67.388	36.9304
1.450000	67.730	36.4381
1.475000	68.151	35.8029
1.500000	68.562	35.1747
1.525000	68.962	34.5634
1.550000	69.351	33.9649
1.575000	69.732	33.3739
1.600000	70.103	32.7859
1.625000	70.465	32.1966
1.650000	70.820	31.6028
1.675000	71.168	31.0013
1.700000	71.510	30.3896
1.725000	71.845	29.7654
1.750000	72.175	29.1268
1.775000	72.501	28.4723
1.800000	72.822	27.8005
1.825000	73.140	27.1124
1.850000	73.453	26.4158
1.875000	73.759	25.7216
1.900000	74.059	25.0335
1.925000	74.352	24.3515
1.950000	74.640	23.6748
1.975000	74.921	23.0027
2.000000	75.197	22.3341
2.030000	75.522	21.5354
2.060000	75.841	20.7388
2.090000	76.153	19.9428
2.120000	76.460	19.1456
2.140000	76.662	18.6127
2.180000	77.060	17.5417
2.200000	77.256	17.0038
2.240000	77.641	15.9299
2.270000	77.922	15.1303
2.300000	78.197	14.3367
2.330000	78.465	13.5494
2.360000	78.729	12.7683
2.400000	79.072	11.7360
2.430000	79.324	10.9682
2.470000	79.653	9.9517
2.500000	79.896	9.1940
2.540000	80.214	8.1887
2.580000	80.526	7.1877
2.620000	80.831	6.1920
2.650000	81.054	5.4499
2.690000	81.345	4.4679
2.720000	81.558	3.7376
2.760000	81.837	2.7730
2.800000	82.109	1.8189
2.850000	82.443	0.6414
2.900000	82.768	-0.5202
2.950000	83.087	-1.6678
3.000000	83.397	-2.8048
3.040000	83.638	-3.7065
3.070000	83.816	-4.3774
3.110000	84.048	-5.2640
3.150000	84.275	-6.1409
3.200000	84.554	-7.2226
3.250000	84.826	-8.2881
3.300000	85.094	-9.3381
3.350000	85.355	-10.3758
3.400000	85.610	-11.4030
3.450000	85.858	-12.4189
3.500000	86.100	-13.4222
3.550000	86.338	-14.4122
3.600000	86.571	-15.3882
3.650000	86.799	-16.3505
3.700000	87.023	-17.3008
3.750000	87.243	-18.2414
3.820000	87.542	-19.5420
3.870000	87.750	-20.4585
3.950000	88.075	-21.9018
4.000000	88.274	-22.7892
4.060000	88.508	-23.8408
4.120000	88.736	-24.8804
4.180000	88.959	-25.9084
4.250000	89.213	-27.0923
4.310000	89.426	-28.0930
4.370000	89.635	-29.0806
4.440000	89.873	-30.2184
4.500000	90.072	-31.1836
4.550000	90.235	-31.9808
4.620000	90.458	-33.0848
4.680000	90.645	-34.0190
4.750000	90.859	-35.0948
4.820000	91.068	-36.1577
4.870000	91.214	-36.9105
4.940000	91.414	-37.9550
5.000000	91.582	-38.8401
5.080000	91.800	-40.0041
5.150000	91.987	-41.0080
5.220000	92.170	-42.0013
5.300000	92.373	-43.1244
5.380000	92.571	-44.2320
5.450000	92.740	-45.1868
5.520000	92.906	-46.1284
5.600000	93.090	-47.1918
5.700000	93.314	-48.5025
5.800000	93.531	-49.7888
5.900000	93.742	-51.0495
6.000000	93.947	-52.2893
6.080000	94.106	-53.2663
6.150000	94.242	-54.1093
6.220000	94.376	-54.9407
6.300000	94.526	-55.8780
6.400000	94.709	-57.0328
6.500000	94.886	-58.1682
6.600000	95.060	-59.2833
6.700000	95.229	-60.3801
6.800000	95.394	-61.4602
6.900000	95.554	-62.5232
7.000000	95.711	-63.5694
7.100000	95.865	-64.6007
7.200000	96.014	-65.6175
7.300000	96.160	-66.6195
7.400000	96.303	-67.6074
7.500000	96.443	-68.5827
7.620000	96.606	-69.7359
7.750000	96.777	-70.9639
7.880000	96.943	-72.1721
8.000000	97.093	-73.2692
8.120000	97.237	-74.3486
8.250000	97.390	-75.4999
8.380000	97.538	-76.6316
8.500000	97.671	-77.6586
8.620000	97.800	-78.6700
8.750000	97.936	-79.7477
8.850000	98.037	-80.5637
9.000000	98.186	-81.7683
9.120000	98.302	-82.7148
9.250000	98.424	-83.7232
9.380000	98.542	-84.7150
9.500000	98.649	-85.6158
9.620000	98.753	-86.5026
9.750000	98.863	-87.4485
9.880000	98.965	-88.3790
10.000000	99.051	-89.2245
10.150000	99.149	-90.2645
10.300000	99.239	-91.2854
10.440000	99.318	-92.2221
10.600000	99.404	-93.2739
10.750000	99.481	-94.2423
10.900000	99.556	-95.1946
11.060000	99.634	-96.1926
11.200000	99.699	-97.0518
11.380000	99.781	-98.1375
11.500000	99.833	-98.8499
11.720000	99.926	-100.1332
11.800000	99.958	-100.5928
12.060000	100.060	-102.0610
12.200000	100.112	-102.8358
12.410000	100.190	-103.9780
12.500000	100.226	-104.4601
12.650000	100.287	-105.2541
12.800000	100.349	-106.0360
13.150000	100.490	-107.8140
13.200000	100.509	-108.0627
13.400000	100.585	-109.0448
13.600000	100.658	-110.0066
13.800000	100.729	-110.9489
14.000000	100.797	-111.8729
14.300000	100.895	-113.2273
14.500000	100.958	-114.1114
14.750000	101.034	-115.1977
15.000000	101.107	-116.2652
15.250000	101.176	-117.3152
15.500000	101.243	-118.3475
15.750000	101.305	-119.3611
16.000000	101.366	-120.3541
16.250000	101.424	-121.3247
16.500000	101.481	-122.2719
16.750000	101.536	-123.1960
17.000000	101.589	-124.0990
17.250000	101.641	-124.9838
17.500000	101.691	-125.8538
17.750000	101.740	-126.7119
18.000000	101.786	-127.5592
18.250000	101.830	-128.3952
18.500000	101.872	-129.2173
18.750000	101.911	-130.0228
19.000000	101.948	-130.8088
19.250000	101.983	-131.5743
19.500000	102.017	-132.3203
19.750000	102.051	-133.0500
20.000000	102.085	-133.7675
20.299999	102.124	-134.6180
20.600000	102.163	-135.4602
20.900000	102.199	-136.2934
21.200001	102.231	-137.1125
21.400000	102.251	-137.6477
21.799999	102.288	-138.6868
22.000000	102.306	-139.1910
22.400000	102.342	-140.1759
22.700001	102.368	-140.9023
23.000000	102.393	-141.6237
23.299999	102.417	-142.3400
23.600000	102.437	-143.0465
24.000000	102.460	-143.9613
24.299999	102.476	-144.6218
24.700001	102.496	-145.4721
25.000000	102.513	-146.0963
25.400000	102.534	-146.9249
25.799999	102.553	-147.7542
26.200001	102.568	-148.5733
26.500000	102.576	-149.1696
26.900000	102.585	-149.9319
27.200001	102.592	-150.4819
27.600000	102.604	-151.2014
28.000000	102.617	-151.9226
28.500000	102.630	-152.8330
29.000000	102.636	-153.7281
29.500000	102.638	-154.5759
30.000000	102.640	-155.3766
30.400000	102.644	-156.0022
30.700001	102.648	-156.4716
31.100000	102.652	-157.0991
31.500000	102.653	-157.7213
32.000000	102.653	-158.4780
32.500000	102.652	-159.2093
33.000000	102.650	-159.9249
33.500000	102.647	-160.6275
34.000000	102.641	-161.3070
34.500000	102.634	-161.9560
35.000000	102.629	-162.5840
35.500000	102.626	-163.2082
36.000000	102.622	-163.8363
36.500000	102.615	-164.4618
37.000000	102.606	-165.0760
37.500000	102.595	-165.6746
38.200001	102.577	-166.4809
38.700001	102.564	-167.0305
39.500000	102.545	-167.8833
40.000000	102.535	-168.4190
40.599998	102.520	-169.0624
41.200001	102.501	-169.6814
41.799999	102.482	-170.2658
42.500000	102.463	-170.9270
43.099998	102.447	-171.4887
43.700001	102.429	-172.0380
44.400002	102.410	-172.6625
45.000000	102.393	-173.1964
45.500000	102.379	-173.6398
46.200001	102.355	-174.2428
46.799999	102.336	-174.7416
47.500000	102.314	-175.3212
48.200001	102.288	-175.8979
48.700001	102.268	-176.2924
49.400002	102.238	-176.8121
50.000000	102.213	-177.2431
50.799999	102.177	-177.8245
51.500000	102.140	-178.3340
52.200001	102.099	-178.8232
53.000000	102.053	-179.3456
53.799999	102.010	-179.8454
54.500000	101.975	179.7106
55.200001	101.938	179.2574
56.000000	101.892	178.7535
57.000000	101.836	178.1542
58.000000	101.779	177.5648
59.000000	101.719	177.0080
60.000000	101.661	176.4867
60.799999	101.616	176.0811
61.500000	101.577	175.7345
62.200001	101.541	175.3910
63.000000	101.501	174.9965
64.000000	101.454	174.5045
65.000000	101.407	174.0255
66.000000	101.358	173.5839
67.000000	101.313	173.1693
68.000000	101.268	172.7532
69.000000	101.224	172.3496
70.000000	101.180	171.9551
71.000000	101.136	171.5635
72.000000	101.091	171.1827
73.000000	101.045	170.8167
74.000000	100.998	170.4726
75.000000	100.954	170.1459
76.199997	100.902	169.7596
77.500000	100.847	169.3409
78.800003	100.791	168.9100
80.000000	100.733	168.5344
81.199997	100.674	168.1934
82.500000	100.609	167.8481
83.800003	100.545	167.5263
85.000000	100.487	167.2302
86.199997	100.427	166.9330
87.500000	100.364	166.6304
88.500000	100.318	166.3905
90.000000	100.246	166.0057
91.199997	100.186	165.7625
92.500000	100.129	165.5285
93.800003	100.073	165.2831
95.000000	100.019	165.0638
96.199997	99.964	164.8599
97.500000	99.905	164.6331
98.800003	99.844	164.3995
100.000000	99.786	164.2063
101.500000	99.717	163.9780
103.000000	99.648	163.7635
104.400002	99.585	163.5753
106.000000	99.512	163.3795
107.500000	99.446	163.2076
109.000000	99.379	163.0212
110.599998	99.307	162.8357
112.000000	99.246	162.6816
113.800003	99.171	162.4937
115.000000	99.122	162.3779
117.199997	99.031	162.1729
118.000000	98.997	162.1081
120.599998	98.886	161.9371
122.000000	98.829	161.8491
124.099998	98.749	161.7186
125.000000	98.718	161.6664
126.500000	98.670	161.5809
128.000000	98.624	161.5067
131.500000	98.518	161.3769
132.000000	98.502	161.3606
134.000000	98.442	161.3036
136.000000	98.384	161.2606
138.000000	98.330	161.2180
140.000000	98.278	161.1685
143.000000	98.201	161.1435
145.000000	98.153	161.1564
147.500000	98.094	161.1570
150.000000	98.033	161.1607
152.500000	97.975	161.1991
155.000000	97.922	161.2715
157.500000	97.871	161.3458
160.000000	97.819	161.4191
162.500000	97.764	161.5255
165.000000	97.712	161.6754
167.500000	97.669	161.8991
170.000000	97.645	162.1977
172.500000	97.649	162.5996
175.000000	97.721	163.1489
177.500000	97.961	163.5913
180.000000	98.448	162.3525
182.500000	98.747	156.7355
185.000000	98.061	150.7867
187.500000	97.002	151.8784
190.000000	96.534	155.2460
192.500000	96.431	157.3116
195.000000	96.405	158.4203
197.500000	96.382	159.0971
200.000000	96.355	159.5646
203.000000	96.316	159.9950
206.000000	96.270	160.3423
209.000000	96.220	160.6377
212.000000	96.170	160.8824
214.000000	96.136	161.0366
218.000000	96.067	161.3464
220.000000	96.031	161.4897
224.000000	95.958	161.7504
227.000000	95.904	161.9536
230.000000	95.850	162.1597
233.000000	95.794	162.3431
236.000000	95.736	162.5111
240.000000	95.653	162.7815
243.000000	95.587	163.0725
247.000000	95.511	163.4572
250.000000	95.450	163.7693
254.000000	95.400	164.3142
258.000000	95.357	164.4694
262.000000	95.276	164.6518
265.000000	95.211	164.8682
269.000000	95.130	165.1981
272.000000	95.071	165.4600
276.000000	94.992	165.8135
280.000000	94.917	166.1726
285.000000	94.824	166.6472
290.000000	94.728	167.1478
295.000000	94.630	167.7036
300.000000	94.531	168.3514
304.000000	94.452	168.9573
307.000000	94.396	169.4850
311.000000	94.334	170.2964
315.000000	94.299	171.2059
320.000000	94.305	172.4006
325.000000	94.372	173.4803
330.000000	94.478	174.2099
335.000000	94.586	174.5214
340.000000	94.668	174.5220
345.000000	94.714	174.3953
350.000000	94.729	174.2773
355.000000	94.722	174.2028
360.000000	94.702	174.1996
365.000000	94.675	174.2589
370.000000	94.644	174.3543
375.000000	94.612	174.4969
382.000000	94.568	174.7620
387.000000	94.537	174.9719
395.000000	94.488	175.3550
400.000000	94.458	175.6185
406.000000	94.425	175.9450
412.000000	94.394	176.2896
418.000000	94.363	176.6396
425.000000	94.330	177.0594
431.000000	94.302	177.4296
437.000000	94.276	177.8049
444.000000	94.248	178.2414
450.000000	94.227	178.6221
455.000000	94.211	178.9435
462.000000	94.188	179.4098
468.000000	94.171	179.8022
475.000000	94.154	-179.7537
482.000000	94.138	-179.3157
487.000000	94.127	-179.0017
494.000000	94.114	-178.5564
500.000000	94.104	-178.1788
508.000000	94.094	-177.6831
515.000000	94.088	-177.2508
522.000000	94.083	-176.8188
530.000000	94.078	-176.3261
538.000000	94.073	-175.8283
545.000000	94.069	-175.3857
552.000000	94.066	-174.9474
560.000000	94.064	-174.4521
570.000000	94.063	-173.8263
580.000000	94.063	-173.1951
590.000000	94.065	-172.5585
600.000000	94.069	-171.9181
608.000000	94.074	-171.4092
615.000000	94.079	-170.9619
622.000000	94.086	-170.5113
630.000000	94.097	-169.9941
640.000000	94.119	-169.3424
650.000000	94.145	-168.6873
660.000000	94.174	-168.0230
670.000000	94.206	-167.3644
680.000000	94.241	-166.7059
690.000000	94.280	-166.0416
700.000000	94.323	-165.3826
710.000000	94.371	-164.7362
720.000000	94.423	-164.0922
730.000000	94.480	-163.4736
740.000000	94.543	-162.8931
750.000000	94.609	-162.3670
762.000000	94.688	-161.8238
775.000000	94.765	-161.3085
788.000000	94.831	-160.8406
800.000000	94.876	-160.4371
812.000000	94.904	-160.0283
825.000000	94.918	-159.5477
838.000000	94.922	-159.0015
850.000000	94.922	-158.4085
862.000000	94.923	-157.7283
875.000000	94.929	-156.8995
885.000000	94.939	-156.2106
900.000000	94.969	-155.1090
912.000000	95.004	-154.1951
925.000000	95.055	-153.1919
938.000000	95.119	-152.1889
950.000000	95.189	-151.2769
962.000000	95.268	-150.3871
975.000000	95.361	-149.4557
988.000000	95.458	-148.5670
1000.000000	95.546	-147.7861
1015.000000	95.645	-146.8606
1030.000000	95.740	-146.0009
1044.000000	95.830	-145.2555
1060.000000	95.939	-144.4655
1075.000000	96.043	-143.7841
1090.000000	96.150	-143.1588
1106.000000	96.265	-142.5525
1120.000000	96.365	-142.0608
1138.000000	96.494	-141.4803
1150.000000	96.580	-141.1276
1172.000000	96.736	-140.5432
1180.000000	96.792	-140.3478
1206.000000	96.973	-139.7658
1220.000000	97.070	-139.4819
1241.000000	97.218	-139.0892
1250.000000	97.286	-138.9315
1265.000000	97.408	-138.6818
1280.000000	97.536	-138.4469
1315.000000	97.837	-137.9442
1320.000000	97.879	-137.8769
1340.000000	98.051	-137.6173
1360.000000	98.222	-137.3742
1380.000000	98.393	-137.1422
1400.000000	98.565	-136.9248
1430.000000	98.825	-136.6274
1450.000000	99.002	-136.4491
1475.000000	99.226	-136.2494
1500.000000	99.454	-136.0842
1525.000000	99.686	-135.9573
1550.000000	99.924	-135.8696
1575.000000	100.166	-135.8296
1600.000000	100.417	-135.8450
1625.000000	100.676	-135.9182
1650.000000	100.943	-136.0576
1675.000000	101.214	-136.2711
1700.000000	101.490	-136.5673
1725.000000	101.768	-136.9498
1750.000000	102.048	-137.4256
1775.000000	102.330	-138.0031
1800.000000	102.612	-138.6884
1825.000000	102.893	-139.4859
1850.000000	103.171	-140.4015
1875.000000	103.444	-141.4404
1900.000000	103.709	-142.6041
1925.000000	103.966	-143.8918
1950.000000	104.211	-145.3029
1975.000000	104.442	-146.8320
2000.000000	104.658	-148.4717
2030.000000	104.894	-150.5717
2060.000000	105.101	-152.7941
2090.000000	105.276	-155.1103
2120.000000	105.415	-157.4880
2140.000000	105.488	-159.0916
2180.000000	105.587	-162.2945
2200.000000	105.613	-163.8716
2240.000000	105.622	-166.9335
2270.000000	105.595	-169.1194
2300.000000	105.541	-171.1889
2330.000000	105.466	-173.1227
2360.000000	105.372	-174.9057
2400.000000	105.225	-177.0423
2430.000000	105.105	-178.4640
2470.000000	104.937	179.8588
2500.000000	104.807	178.7617
2540.000000	104.633	177.5008
2580.000000	104.462	176.4503
2620.000000	104.298	175.5858
2650.000000	104.181	175.0468
2690.000000	104.035	174.4567
2720.000000	103.933	174.0982
2760.000000	103.808	173.7170
2800.000000	103.697	173.4297
2850.000000	103.577	173.1756
2900.000000	103.479	173.0109
2950.000000	103.403	172.9052
3000.000000	103.350	172.8364
3040.000000	103.323	172.7913
3070.000000	103.311	172.7555
3110.000000	103.309	172.6965
3150.000000	103.323	172.6161
3200.000000	103.367	172.4765
3250.000000	103.434	172.2574
3300.000000	103.518	171.9357
3350.000000	103.615	171.5032
3400.000000	103.721	170.9399
3450.000000	103.835	170.2271
3500.000000	103.952	169.3471
3550.000000	104.067	168.2885
3600.000000	104.173	167.0437
3650.000000	104.265	165.6104
3700.000000	104.336	163.9966
3750.000000	104.380	162.2212
3820.000000	104.381	159.5208
3870.000000	104.332	157.4972
3950.000000	104.156	154.2613
4000.000000	103.978	152.3428
4060.000000	103.691	150.2587
4120.000000	103.342	148.5163
4180.000000	102.953	147.2036
4250.000000	102.476	146.3042
4310.000000	102.070	146.1096
4370.000000	101.692	146.4398
4440.000000	101.320	147.4061
4500.000000	101.084	148.5900
4550.000000	100.960	149.6860
4620.000000	100.905	151.0991
4680.000000	100.961	151.8976
4750.000000	101.105	151.9772
4820.000000	101.260	150.8992
4870.000000	101.327	149.4408
4940.000000	101.298	146.7073
5000.000000	101.135	144.0995
5080.000000	100.729	140.8864
5150.000000	100.238	138.7441
5220.000000	99.677	137.4124
5300.000000	99.010	136.8709
5380.000000	98.360	137.2272
5450.000000	97.827	138.1209
5520.000000	97.335	139.4305
5600.000000	96.825	141.3144
5700.000000	96.267	144.0913
5800.000000	95.792	147.2034
5900.000000	95.398	150.5489
6000.000000	95.081	154.0576
6080.000000	94.882	156.9496
6150.000000	94.746	159.5220
6220.000000	94.642	162.1216
6300.000000	94.560	165.1143
6400.000000	94.505	168.8665
6500.000000	94.512	172.5925
6600.000000	94.586	176.2513
6700.000000	94.729	179.8081
6800.000000	94.946	-176.7742
6900.000000	95.243	-173.5408
7000.000000	95.627	-170.5527
7100.000000	96.103	-167.8902
7200.000000	96.678	-165.6677
7300.000000	97.357	-164.0456
7400.000000	98.144	-163.2429
7500.000000	99.034	-163.5717
7620.000000	100.204	-166.0748
7750.000000	101.455	-172.2602
7880.000000	102.387	177.5563
8000.000000	102.653	165.6507
8120.000000	102.208	153.6122
8250.000000	101.058	142.9828
8380.000000	99.536	136.1031
8500.000000	98.071	132.8666
8620.000000	96.690	131.8712
8750.000000	95.353	132.5011
8850.000000	94.443	133.7859
9000.000000	93.258	136.5232
9120.000000	92.444	139.1521
9250.000000	91.675	142.2498
9380.000000	91.004	145.4897
9500.000000	90.461	148.5280
9620.000000	89.985	151.5506
9750.000000	89.539	154.7530
9880.000000	89.159	157.8269
10000.000000	88.860	160.5023
10150.000000	88.547	163.5451
10300.000000	88.278	166.1382
10440.000000	88.039	168.0703
10600.000000	87.751	169.6852
10750.000000	87.432	170.6654
10900.000000	87.022	171.2824
11060.000000	86.452	172.0740
11200.000000	85.884	173.1327
11380.000000	85.054	174.6849
11500.000000	84.406	176.1915
11720.000000	83.142	-179.0769
11800.000000	82.703	-176.7684
12060.000000	81.435	-168.0762
12200.000000	80.814	-163.0885
12410.000000	79.840	-154.6294
12500.000000	79.420	-150.0689
12650.000000	78.851	-140.5933
12800.000000	78.665	-129.1825
13150.000000	80.161	-106.1656
13200.000000	80.503	-104.1624
13400.000000	81.870	-99.5452
13600.000000	82.977	-99.0750
13800.000000	83.678	-100.6603
14000.000000	84.027	-102.6132
14300.000000	84.151	-105.1067
14500.000000	84.069	-106.5684
14750.000000	83.791	-108.2006
15000.000000	83.307	-109.1805
15250.000000	82.695	-108.7324
15500.000000	82.256	-106.6327
15750.000000	82.135	-106.5963
16000.000000	81.725	-108.8063
16250.000000	81.135	-110.6511
16500.000000	80.324	-112.2556
16750.000000	79.258	-111.8543
17000.000000	78.261	-109.3534
17250.000000	77.377	-107.6443
17500.000000	76.102	-106.2105
17750.000000	74.496	-99.5080
18000.000000	73.394	-88.4011
18250.000000	72.918	-78.0807
18500.000000	72.735	-69.5191
18750.000000	72.676	-62.2728
19000.000000	72.681	-56.1871
19250.000000	72.707	-51.1854
19500.000000	72.709	-47.0203
19750.000000	72.679	-43.4135
20000.000000	72.657	-40.7863
