* Measurement data measured by REW V5.30
* Source: ASIO ASIO4ALL v2, EPOS GSX 300 1
* Format: 256k Log Swept Sine, 1 sweep at -12.7 dBFS with no timing reference
* Dated: 2023. 12. 28 ¿ÀÀü 1:44:48
* REW Settings:
*  C-weighting compensation: Off
*  Target level: 75.0 dB
* Note: ; 
* Measurement: L Grey Deep Insertion
* Smoothing: 1/24 octave
* Frequency Step: 1/48 octave
* Start Frequency: 1.000 Hz
*
* Freq(Hz)	SPL(dB)	Phase(degrees)
1.000000	60.758	44.4166
1.015000	61.145	44.2912
1.030000	61.525	44.1255
1.044000	61.872	43.9354
1.060000	62.260	43.6778
1.075000	62.613	43.3988
1.090000	62.956	43.0866
1.106000	63.311	42.7302
1.120000	63.615	42.4187
1.138000	63.999	42.0303
1.150000	64.250	41.7784
1.172000	64.704	41.3269
1.180000	64.866	41.1649
1.206000	65.385	40.6419
1.220000	65.658	40.3604
1.241000	66.062	39.9348
1.250000	66.233	39.7505
1.265000	66.514	39.4398
1.280000	66.792	39.1240
1.315000	67.426	38.3624
1.320000	67.515	38.2503
1.340000	67.868	37.7931
1.360000	68.216	37.3205
1.380000	68.559	36.8314
1.400000	68.897	36.3249
1.430000	69.397	35.5308
1.450000	69.725	34.9788
1.475000	70.130	34.2733
1.500000	70.525	33.5774
1.525000	70.911	32.9004
1.550000	71.288	32.2383
1.575000	71.655	31.5861
1.600000	72.014	30.9393
1.625000	72.365	30.2942
1.650000	72.709	29.6472
1.675000	73.046	28.9953
1.700000	73.377	28.3358
1.725000	73.702	27.6664
1.750000	74.022	26.9851
1.775000	74.338	26.2901
1.800000	74.650	25.5801
1.825000	74.958	24.8555
1.850000	75.261	24.1234
1.875000	75.558	23.3936
1.900000	75.849	22.6699
1.925000	76.134	21.9525
1.950000	76.413	21.2408
1.975000	76.687	20.5344
2.000000	76.955	19.8325
2.030000	77.271	18.9951
2.060000	77.580	18.1617
2.090000	77.884	17.3307
2.120000	78.182	16.5005
2.140000	78.379	15.9467
2.180000	78.766	14.8365
2.200000	78.957	14.2802
2.240000	79.330	13.1697
2.270000	79.604	12.3426
2.300000	79.871	11.5215
2.330000	80.132	10.7071
2.360000	80.388	9.8995
2.400000	80.721	8.8331
2.430000	80.966	8.0408
2.470000	81.287	6.9935
2.500000	81.523	6.2143
2.540000	81.832	5.1823
2.580000	82.135	4.1566
2.620000	82.431	3.1367
2.650000	82.648	2.3765
2.690000	82.931	1.3707
2.720000	83.138	0.6230
2.760000	83.409	-0.3642
2.800000	83.673	-1.3397
2.850000	83.997	-2.5422
2.900000	84.313	-3.7261
2.950000	84.623	-4.8939
3.000000	84.924	-6.0502
3.040000	85.158	-6.9669
3.070000	85.330	-7.6489
3.110000	85.555	-8.5497
3.150000	85.776	-9.4402
3.200000	86.046	-10.5377
3.250000	86.311	-11.6174
3.300000	86.571	-12.6800
3.350000	86.824	-13.7293
3.400000	87.071	-14.7674
3.450000	87.312	-15.7936
3.500000	87.548	-16.8066
3.550000	87.778	-17.8055
3.600000	88.004	-18.7897
3.650000	88.226	-19.7593
3.700000	88.444	-20.7163
3.750000	88.656	-21.6631
3.820000	88.947	-22.9716
3.870000	89.149	-23.8934
3.950000	89.464	-25.3442
4.000000	89.657	-26.2357
4.060000	89.884	-27.2917
4.120000	90.106	-28.3353
4.180000	90.323	-29.3672
4.250000	90.569	-30.5551
4.310000	90.776	-31.5587
4.370000	90.978	-32.5488
4.440000	91.209	-33.6889
4.500000	91.402	-34.6560
4.550000	91.560	-35.4546
4.620000	91.776	-36.5602
4.680000	91.957	-37.4953
4.750000	92.164	-38.5712
4.820000	92.366	-39.6335
4.870000	92.507	-40.3857
4.940000	92.700	-41.4289
5.000000	92.862	-42.3125
5.080000	93.073	-43.4732
5.150000	93.254	-44.4731
5.220000	93.429	-45.4616
5.300000	93.625	-46.5783
5.380000	93.815	-47.6786
5.450000	93.978	-48.6259
5.520000	94.137	-49.5589
5.600000	94.314	-50.6113
5.700000	94.529	-51.9068
5.800000	94.738	-53.1767
5.900000	94.940	-54.4194
6.000000	95.137	-55.6396
6.080000	95.290	-56.6003
6.150000	95.421	-57.4286
6.220000	95.549	-58.2452
6.300000	95.693	-59.1653
6.400000	95.869	-60.2979
6.500000	96.040	-61.4111
6.600000	96.206	-62.5043
6.700000	96.369	-63.5796
6.800000	96.527	-64.6384
6.900000	96.682	-65.6806
7.000000	96.833	-66.7066
7.100000	96.980	-67.7183
7.200000	97.124	-68.7159
7.300000	97.264	-69.6989
7.400000	97.401	-70.6683
7.500000	97.534	-71.6253
7.620000	97.690	-72.7564
7.750000	97.854	-73.9601
7.880000	98.012	-75.1436
8.000000	98.154	-76.2173
8.120000	98.292	-77.2723
8.250000	98.437	-78.3961
8.380000	98.577	-79.4996
8.500000	98.703	-80.4997
8.620000	98.826	-81.4837
8.750000	98.955	-82.5312
8.850000	99.052	-83.3240
9.000000	99.194	-84.4938
9.120000	99.305	-85.4131
9.250000	99.421	-86.3928
9.380000	99.535	-87.3570
9.500000	99.637	-88.2333
9.620000	99.738	-89.0970
9.750000	99.843	-90.0192
9.880000	99.941	-90.9274
10.000000	100.024	-91.7539
10.150000	100.117	-92.7714
10.300000	100.203	-93.7716
10.440000	100.277	-94.6901
10.600000	100.358	-95.7223
10.750000	100.432	-96.6733
10.900000	100.503	-97.6087
11.060000	100.576	-98.5894
11.200000	100.637	-99.4335
11.380000	100.714	-100.5001
11.500000	100.763	-101.1998
11.720000	100.850	-102.4595
11.800000	100.881	-102.9102
12.060000	100.976	-104.3491
12.200000	101.025	-105.1074
12.410000	101.099	-106.2239
12.500000	101.133	-106.6947
12.650000	101.191	-107.4694
12.800000	101.251	-108.2319
13.150000	101.387	-109.9655
13.200000	101.406	-110.2082
13.400000	101.480	-111.1675
13.600000	101.551	-112.1092
13.800000	101.620	-113.0346
14.000000	101.687	-113.9446
14.300000	101.782	-115.2820
14.500000	101.843	-116.1552
14.750000	101.914	-117.2253
15.000000	101.983	-118.2709
15.250000	102.047	-119.2911
15.500000	102.109	-120.2861
15.750000	102.169	-121.2571
16.000000	102.227	-122.2063
16.250000	102.285	-123.1367
16.500000	102.342	-124.0508
16.750000	102.398	-124.9510
17.000000	102.450	-125.8378
17.250000	102.501	-126.7109
17.500000	102.548	-127.5689
17.750000	102.593	-128.4101
18.000000	102.636	-129.2336
18.250000	102.677	-130.0390
18.500000	102.717	-130.8275
18.750000	102.755	-131.6008
19.000000	102.792	-132.3610
19.250000	102.828	-133.1100
19.500000	102.862	-133.8485
19.750000	102.895	-134.5765
20.000000	102.926	-135.2929
20.299999	102.961	-136.1356
20.600000	102.995	-136.9581
20.900000	103.027	-137.7605
21.200001	103.057	-138.5448
21.400000	103.077	-139.0592
21.799999	103.116	-140.0716
22.000000	103.135	-140.5707
22.400000	103.170	-141.5552
22.700001	103.194	-142.2796
23.000000	103.216	-142.9896
23.299999	103.236	-143.6836
23.600000	103.255	-144.3613
24.000000	103.280	-145.2422
24.299999	103.298	-145.8887
24.700001	103.320	-146.7367
25.000000	103.336	-147.3639
25.400000	103.355	-148.1884
25.799999	103.371	-148.9969
26.200001	103.384	-149.7853
26.500000	103.393	-150.3619
26.900000	103.404	-151.1112
27.200001	103.412	-151.6600
27.600000	103.422	-152.3780
28.000000	103.431	-153.0847
28.500000	103.442	-153.9559
29.000000	103.450	-154.8124
29.500000	103.455	-155.6474
30.000000	103.457	-156.4550
30.400000	103.459	-157.0811
30.700001	103.460	-157.5408
31.100000	103.461	-158.1439
31.500000	103.462	-158.7388
32.000000	103.463	-159.4721
32.500000	103.463	-160.1907
33.000000	103.461	-160.8905
33.500000	103.459	-161.5724
34.000000	103.456	-162.2418
34.500000	103.453	-162.9030
35.000000	103.447	-163.5536
35.500000	103.440	-164.1871
36.000000	103.431	-164.7988
36.500000	103.423	-165.3915
37.000000	103.414	-165.9720
37.500000	103.406	-166.5457
38.200001	103.394	-167.3379
38.700001	103.383	-167.8924
39.500000	103.365	-168.7580
40.000000	103.353	-169.2865
40.599998	103.337	-169.9058
41.200001	103.322	-170.5056
41.799999	103.306	-171.0876
42.500000	103.288	-171.7543
43.099998	103.272	-172.3205
43.700001	103.255	-172.8779
44.400002	103.233	-173.5088
45.000000	103.213	-174.0326
45.500000	103.198	-174.4605
46.200001	103.175	-175.0508
46.799999	103.155	-175.5489
47.500000	103.130	-176.1153
48.200001	103.104	-176.6596
48.700001	103.086	-177.0360
49.400002	103.061	-177.5557
50.000000	103.038	-178.0005
50.799999	103.000	-178.5854
51.500000	102.963	-179.0793
52.200001	102.926	-179.5595
53.000000	102.885	179.8993
53.799999	102.842	179.3696
54.500000	102.804	178.9211
55.200001	102.767	178.4832
56.000000	102.725	177.9903
57.000000	102.672	177.3869
58.000000	102.617	176.8005
59.000000	102.562	176.2379
60.000000	102.508	175.6967
60.799999	102.464	175.2700
61.500000	102.424	174.9058
62.200001	102.384	174.5547
63.000000	102.342	174.1646
64.000000	102.294	173.6872
65.000000	102.248	173.2317
66.000000	102.205	172.7892
67.000000	102.164	172.3395
68.000000	102.120	171.8942
69.000000	102.076	171.4661
70.000000	102.032	171.0527
71.000000	101.988	170.6530
72.000000	101.943	170.2691
73.000000	101.899	169.8967
74.000000	101.855	169.5305
75.000000	101.809	169.1780
76.199997	101.756	168.7736
77.500000	101.700	168.3367
78.800003	101.640	167.9120
80.000000	101.584	167.5527
81.199997	101.527	167.1980
82.500000	101.463	166.8208
83.800003	101.399	166.4639
85.000000	101.340	166.1395
86.199997	101.281	165.8235
87.500000	101.218	165.4960
88.500000	101.171	165.2563
90.000000	101.101	164.9057
91.199997	101.045	164.6332
92.500000	100.985	164.3482
93.800003	100.925	164.0668
95.000000	100.869	163.8160
96.199997	100.812	163.5796
97.500000	100.750	163.3448
98.800003	100.692	163.1239
100.000000	100.638	162.9121
101.500000	100.568	162.6548
103.000000	100.498	162.4191
104.400002	100.434	162.2124
106.000000	100.361	161.9804
107.500000	100.294	161.7667
109.000000	100.226	161.5553
110.599998	100.153	161.3530
112.000000	100.091	161.1864
113.800003	100.014	160.9790
115.000000	99.963	160.8466
117.199997	99.870	160.6208
118.000000	99.836	160.5389
120.599998	99.723	160.2919
122.000000	99.663	160.1717
124.099998	99.578	160.0002
125.000000	99.544	159.9284
126.500000	99.492	159.8179
128.000000	99.444	159.7228
131.500000	99.339	159.5190
132.000000	99.323	159.4914
134.000000	99.262	159.3871
136.000000	99.201	159.2970
138.000000	99.142	159.2165
140.000000	99.085	159.1381
143.000000	98.998	159.0316
145.000000	98.939	158.9710
147.500000	98.868	158.9268
150.000000	98.801	158.8897
152.500000	98.735	158.8622
155.000000	98.671	158.8373
157.500000	98.608	158.8180
160.000000	98.542	158.8298
162.500000	98.469	158.8556
165.000000	98.394	158.8854
167.500000	98.321	158.9342
170.000000	98.254	159.0192
172.500000	98.196	159.1486
175.000000	98.155	159.3355
177.500000	98.167	159.5260
180.000000	98.243	159.0568
182.500000	98.175	157.3358
185.000000	97.877	156.7936
187.500000	97.674	157.5656
190.000000	97.583	158.1436
192.500000	97.521	158.4550
195.000000	97.462	158.6525
197.500000	97.404	158.8259
200.000000	97.347	158.9860
203.000000	97.280	159.1471
206.000000	97.216	159.2863
209.000000	97.153	159.4364
212.000000	97.092	159.5982
214.000000	97.051	159.7032
218.000000	96.972	159.9078
220.000000	96.934	160.0083
224.000000	96.860	160.2163
227.000000	96.804	160.3776
230.000000	96.747	160.5416
233.000000	96.692	160.7086
236.000000	96.640	160.8740
240.000000	96.571	161.0790
243.000000	96.520	161.2435
247.000000	96.452	161.4721
250.000000	96.400	161.6495
254.000000	96.329	161.8889
258.000000	96.257	162.1326
262.000000	96.187	162.3779
265.000000	96.136	162.5591
269.000000	96.068	162.8045
272.000000	96.018	162.9930
276.000000	95.952	163.2408
280.000000	95.889	163.4970
285.000000	95.814	163.8241
290.000000	95.739	164.1456
295.000000	95.666	164.4677
300.000000	95.595	164.7907
304.000000	95.540	165.0504
307.000000	95.499	165.2451
311.000000	95.447	165.5082
315.000000	95.400	165.7772
320.000000	95.348	166.1149
325.000000	95.302	166.4436
330.000000	95.258	166.7725
335.000000	95.216	167.1099
340.000000	95.176	167.4473
345.000000	95.135	167.7886
350.000000	95.097	168.1287
355.000000	95.061	168.4685
360.000000	95.026	168.7972
365.000000	94.990	169.1248
370.000000	94.955	169.4612
375.000000	94.922	169.7957
382.000000	94.878	170.2644
387.000000	94.848	170.5987
395.000000	94.801	171.1300
400.000000	94.774	171.4632
406.000000	94.744	171.8632
412.000000	94.713	172.2733
418.000000	94.681	172.6728
425.000000	94.646	173.1309
431.000000	94.618	173.5304
437.000000	94.592	173.9211
444.000000	94.562	174.3706
450.000000	94.538	174.7651
455.000000	94.518	175.0910
462.000000	94.491	175.5478
468.000000	94.470	175.9355
475.000000	94.446	176.3829
482.000000	94.423	176.8318
487.000000	94.408	177.1523
494.000000	94.388	177.5930
500.000000	94.374	177.9693
508.000000	94.356	178.4792
515.000000	94.343	178.9142
522.000000	94.331	179.3486
530.000000	94.317	179.8483
538.000000	94.305	-179.6569
545.000000	94.296	-179.2277
552.000000	94.287	-178.7984
560.000000	94.278	-178.3073
570.000000	94.268	-177.6982
580.000000	94.259	-177.0896
590.000000	94.252	-176.4764
600.000000	94.247	-175.8777
608.000000	94.245	-175.4114
615.000000	94.243	-175.0064
622.000000	94.241	-174.6041
630.000000	94.241	-174.1486
640.000000	94.246	-173.5907
650.000000	94.253	-173.0471
660.000000	94.258	-172.5068
670.000000	94.261	-171.9679
680.000000	94.261	-171.4320
690.000000	94.256	-170.8891
700.000000	94.245	-170.3286
710.000000	94.230	-169.7287
720.000000	94.211	-169.0742
730.000000	94.191	-168.3535
740.000000	94.170	-167.5569
750.000000	94.153	-166.6823
762.000000	94.145	-165.5353
775.000000	94.153	-164.1889
788.000000	94.187	-162.7871
800.000000	94.237	-161.4902
812.000000	94.301	-160.2356
825.000000	94.385	-158.9631
838.000000	94.481	-157.7985
850.000000	94.577	-156.8175
862.000000	94.675	-155.9182
875.000000	94.780	-155.0204
885.000000	94.859	-154.3685
900.000000	94.976	-153.4273
912.000000	95.069	-152.6995
925.000000	95.169	-151.9308
938.000000	95.270	-151.1776
950.000000	95.365	-150.4959
962.000000	95.461	-149.8291
975.000000	95.568	-149.1207
988.000000	95.674	-148.4304
1000.000000	95.765	-147.8138
1015.000000	95.863	-147.0713
1030.000000	95.955	-146.3666
1044.000000	96.042	-145.7408
1060.000000	96.144	-145.0624
1075.000000	96.242	-144.4732
1090.000000	96.342	-143.9261
1106.000000	96.451	-143.3836
1120.000000	96.546	-142.9428
1138.000000	96.668	-142.4214
1150.000000	96.749	-142.1010
1172.000000	96.897	-141.5678
1180.000000	96.950	-141.3896
1206.000000	97.121	-140.8571
1220.000000	97.212	-140.5971
1241.000000	97.353	-140.2361
1250.000000	97.418	-140.0920
1265.000000	97.534	-139.8628
1280.000000	97.656	-139.6444
1315.000000	97.944	-139.1786
1320.000000	97.984	-139.1160
1340.000000	98.147	-138.8726
1360.000000	98.309	-138.6431
1380.000000	98.473	-138.4237
1400.000000	98.636	-138.2128
1430.000000	98.883	-137.9207
1450.000000	99.050	-137.7424
1475.000000	99.261	-137.5362
1500.000000	99.476	-137.3566
1525.000000	99.696	-137.2058
1550.000000	99.920	-137.0893
1575.000000	100.150	-137.0140
1600.000000	100.387	-136.9821
1625.000000	100.634	-136.9986
1650.000000	100.889	-137.0738
1675.000000	101.148	-137.2148
1700.000000	101.411	-137.4265
1725.000000	101.678	-137.7161
1750.000000	101.949	-138.0913
1775.000000	102.221	-138.5578
1800.000000	102.495	-139.1197
1825.000000	102.769	-139.7862
1850.000000	103.041	-140.5626
1875.000000	103.311	-141.4494
1900.000000	103.576	-142.4495
1925.000000	103.835	-143.5669
1950.000000	104.085	-144.8032
1975.000000	104.326	-146.1559
2000.000000	104.556	-147.6226
2030.000000	104.814	-149.5264
2060.000000	105.047	-151.5732
2090.000000	105.253	-153.7413
2120.000000	105.428	-156.0033
2140.000000	105.527	-157.5508
2180.000000	105.678	-160.6974
2200.000000	105.732	-162.2758
2240.000000	105.794	-165.3988
2270.000000	105.805	-167.6778
2300.000000	105.787	-169.8727
2330.000000	105.743	-171.9639
2360.000000	105.676	-173.9356
2400.000000	105.558	-176.3468
2430.000000	105.454	-177.9808
2470.000000	105.302	-179.9486
2500.000000	105.179	178.7280
2540.000000	105.009	177.1615
2580.000000	104.835	175.8122
2620.000000	104.662	174.6644
2650.000000	104.535	173.9232
2690.000000	104.371	173.0788
2720.000000	104.253	172.5433
2760.000000	104.104	171.9429
2800.000000	103.966	171.4559
2850.000000	103.810	170.9830
2900.000000	103.673	170.6289
2950.000000	103.554	170.3649
3000.000000	103.456	170.1691
3040.000000	103.391	170.0463
3070.000000	103.351	169.9650
3110.000000	103.309	169.8621
3150.000000	103.282	169.7604
3200.000000	103.272	169.6204
3250.000000	103.285	169.4497
3300.000000	103.313	169.2306
3350.000000	103.355	168.9509
3400.000000	103.409	168.5946
3450.000000	103.473	168.1467
3500.000000	103.544	167.5945
3550.000000	103.620	166.9263
3600.000000	103.696	166.1310
3650.000000	103.769	165.2024
3700.000000	103.836	164.1398
3750.000000	103.892	162.9436
3820.000000	103.943	161.0566
3870.000000	103.954	159.5788
3950.000000	103.916	157.0553
4000.000000	103.847	155.4321
4060.000000	103.708	153.5054
4120.000000	103.519	151.6686
4180.000000	103.292	149.9966
4250.000000	102.993	148.3338
4310.000000	102.723	147.1995
4370.000000	102.456	146.3403
4440.000000	102.168	145.6298
4500.000000	101.955	145.1667
4550.000000	101.806	144.7804
4620.000000	101.636	144.0582
4680.000000	101.506	143.1304
4750.000000	101.336	141.6050
4820.000000	101.104	139.6809
4870.000000	100.882	138.1880
4940.000000	100.486	136.1588
5000.000000	100.077	134.6649
5080.000000	99.466	133.2350
5150.000000	98.899	132.5858
5220.000000	98.326	132.4799
5300.000000	97.688	132.9422
5380.000000	97.080	133.9177
5450.000000	96.578	135.1096
5520.000000	96.106	136.5567
5600.000000	95.604	138.4609
5700.000000	95.030	141.1309
5800.000000	94.513	144.0544
5900.000000	94.053	147.1821
6000.000000	93.647	150.4639
6080.000000	93.362	153.1756
6150.000000	93.140	155.5991
6220.000000	92.940	158.0629
6300.000000	92.734	160.9173
6400.000000	92.503	164.5325
6500.000000	92.305	168.1817
6600.000000	92.146	171.8576
6700.000000	92.027	175.5508
6800.000000	91.948	179.2545
6900.000000	91.913	-177.0363
7000.000000	91.923	-173.3230
7100.000000	91.983	-169.6233
7200.000000	92.093	-165.9751
7300.000000	92.251	-162.4181
7400.000000	92.451	-158.9629
7500.000000	92.694	-155.5957
7620.000000	93.050	-151.6795
7750.000000	93.527	-147.6321
7880.000000	94.113	-143.8612
8000.000000	94.768	-140.7187
8120.000000	95.548	-138.0197
8250.000000	96.547	-135.8030
8380.000000	97.730	-134.6747
8500.000000	98.999	-135.1157
8620.000000	100.423	-137.7283
8750.000000	102.027	-144.0849
8850.000000	103.133	-152.0298
9000.000000	104.125	-168.4216
9120.000000	104.058	176.8066
9250.000000	103.128	162.4549
9380.000000	101.635	151.8998
9500.000000	100.091	145.7128
9620.000000	98.594	142.1844
9750.000000	97.123	140.3641
9880.000000	95.826	139.7927
10000.000000	94.763	139.8883
10150.000000	93.573	140.4323
10300.000000	92.482	141.1825
10440.000000	91.510	141.9489
10600.000000	90.418	142.8849
10750.000000	89.382	143.9207
10900.000000	88.326	145.2973
11060.000000	87.190	147.1824
11200.000000	86.182	149.0322
11380.000000	84.815	151.7455
11500.000000	83.840	153.9209
11720.000000	81.856	159.1587
11800.000000	81.044	161.9312
12060.000000	78.365	178.4360
12200.000000	77.410	-167.4703
12410.000000	77.298	-145.2707
12500.000000	77.672	-137.4690
12650.000000	78.561	-127.8420
12800.000000	79.527	-121.8729
13150.000000	81.484	-117.4440
13200.000000	81.686	-117.8036
13400.000000	82.127	-120.8201
13600.000000	81.972	-124.2832
13800.000000	81.369	-126.2913
14000.000000	80.535	-126.0514
14300.000000	79.272	-122.2049
14500.000000	78.542	-118.5311
14750.000000	77.740	-113.2727
15000.000000	77.186	-108.0623
15250.000000	76.561	-106.2943
15500.000000	75.206	-103.6541
15750.000000	73.620	-95.5719
16000.000000	72.391	-83.4668
16250.000000	71.754	-69.2878
16500.000000	71.698	-54.3293
16750.000000	72.193	-39.3166
17000.000000	73.275	-25.2574
17250.000000	74.945	-13.8373
17500.000000	77.057	-7.1899
17750.000000	79.205	-7.0065
18000.000000	80.897	-13.0520
18250.000000	81.772	-23.0773
18500.000000	81.714	-33.8729
18750.000000	80.881	-42.5504
19000.000000	79.612	-47.7422
19250.000000	78.222	-49.7258
19500.000000	76.891	-49.6260
19750.000000	75.717	-48.6309
20000.000000	74.984	-47.7063
