* Measurement data measured by REW V5.30
* Source: ASIO ASIO4ALL v2, EPOS GSX 300 1
* Format: 256k Log Swept Sine, 1 sweep at -12.7 dBFS with no timing reference
* Dated: 2023. 12. 28 ¿ÀÀü 1:28:39
* REW Settings:
*  C-weighting compensation: Off
*  Target level: 75.0 dB
* Note: ; 
* Measurement: L Red
* Smoothing: 1/24 octave
* Frequency Step: 1/48 octave
* Start Frequency: 1.000 Hz
*
* Freq(Hz)	SPL(dB)	Phase(degrees)
1.000000	60.923	42.5917
1.015000	61.297	42.4613
1.030000	61.664	42.2942
1.044000	62.001	42.1061
1.060000	62.378	41.8541
1.075000	62.722	41.5836
1.090000	63.058	41.2827
1.106000	63.406	40.9408
1.120000	63.705	40.6430
1.138000	64.083	40.2730
1.150000	64.331	40.0337
1.172000	64.779	39.6058
1.180000	64.939	39.4525
1.206000	65.451	38.9582
1.220000	65.722	38.6921
1.241000	66.121	38.2900
1.250000	66.290	38.1157
1.265000	66.569	37.8219
1.280000	66.844	37.5229
1.315000	67.473	36.8003
1.320000	67.561	36.6938
1.340000	67.912	36.2589
1.360000	68.257	35.8085
1.380000	68.597	35.3416
1.400000	68.933	34.8572
1.430000	69.430	34.0965
1.450000	69.756	33.5668
1.475000	70.159	32.8895
1.500000	70.552	32.2223
1.525000	70.936	31.5744
1.550000	71.311	30.9413
1.575000	71.678	30.3179
1.600000	72.036	29.6996
1.625000	72.386	29.0821
1.650000	72.730	28.4621
1.675000	73.067	27.8362
1.700000	73.398	27.2018
1.725000	73.724	26.5566
1.750000	74.044	25.8985
1.775000	74.360	25.2257
1.800000	74.672	24.5369
1.825000	74.981	23.8327
1.850000	75.284	23.1206
1.875000	75.582	22.4112
1.900000	75.874	21.7081
1.925000	76.159	21.0112
1.950000	76.439	20.3198
1.975000	76.714	19.6333
2.000000	76.983	18.9506
2.030000	77.300	18.1353
2.060000	77.611	17.3227
2.090000	77.916	16.5110
2.120000	78.217	15.6986
2.140000	78.414	15.1557
2.180000	78.803	14.0653
2.200000	78.995	13.5178
2.240000	79.371	12.4244
2.270000	79.645	11.6099
2.300000	79.914	10.8012
2.330000	80.177	9.9986
2.360000	80.435	9.2023
2.400000	80.771	8.1499
2.430000	81.017	7.3670
2.470000	81.340	6.3309
2.500000	81.578	5.5587
2.540000	81.889	4.5342
2.580000	82.195	3.5141
2.620000	82.493	2.4986
2.650000	82.711	1.7411
2.690000	82.996	0.7383
2.720000	83.204	-0.0077
2.760000	83.477	-0.9933
2.800000	83.743	-1.9679
2.850000	84.069	-3.1706
2.900000	84.387	-4.3562
2.950000	84.698	-5.5274
3.000000	85.001	-6.6888
3.040000	85.236	-7.6106
3.070000	85.409	-8.2967
3.110000	85.635	-9.2035
3.150000	85.857	-10.1002
3.200000	86.128	-11.2056
3.250000	86.393	-12.2932
3.300000	86.653	-13.3638
3.350000	86.907	-14.4215
3.400000	87.154	-15.4691
3.450000	87.394	-16.5052
3.500000	87.629	-17.5281
3.550000	87.859	-18.5364
3.600000	88.084	-19.5291
3.650000	88.305	-20.5060
3.700000	88.521	-21.4697
3.750000	88.733	-22.4231
3.820000	89.021	-23.7407
3.870000	89.221	-24.6683
3.950000	89.534	-26.1265
4.000000	89.725	-27.0210
4.060000	89.950	-28.0787
4.120000	90.170	-29.1229
4.180000	90.384	-30.1544
4.250000	90.628	-31.3405
4.310000	90.832	-32.3413
4.370000	91.032	-33.3273
4.440000	91.261	-34.4609
4.500000	91.452	-35.4208
4.550000	91.608	-36.2127
4.620000	91.822	-37.3081
4.680000	92.002	-38.2341
4.750000	92.207	-39.2990
4.820000	92.408	-40.3497
4.870000	92.549	-41.0930
4.940000	92.741	-42.1232
5.000000	92.903	-42.9957
5.080000	93.113	-44.1427
5.150000	93.294	-45.1316
5.220000	93.470	-46.1095
5.300000	93.666	-47.2145
5.380000	93.857	-48.3043
5.450000	94.020	-49.2439
5.520000	94.180	-50.1711
5.600000	94.359	-51.2183
5.700000	94.576	-52.5093
5.800000	94.786	-53.7772
5.900000	94.990	-55.0209
6.000000	95.188	-56.2449
6.080000	95.342	-57.2101
6.150000	95.474	-58.0432
6.220000	95.603	-58.8651
6.300000	95.748	-59.7921
6.400000	95.924	-60.9349
6.500000	96.095	-62.0586
6.600000	96.262	-63.1620
6.700000	96.424	-64.2471
6.800000	96.582	-65.3156
6.900000	96.736	-66.3666
7.000000	96.886	-67.3999
7.100000	97.033	-68.4176
7.200000	97.176	-69.4203
7.300000	97.315	-70.4072
7.400000	97.451	-71.3793
7.500000	97.584	-72.3378
7.620000	97.740	-73.4700
7.750000	97.903	-74.6745
7.880000	98.062	-75.8582
8.000000	98.204	-76.9326
8.120000	98.342	-77.9894
8.250000	98.488	-79.1164
8.380000	98.630	-80.2246
8.500000	98.757	-81.2310
8.620000	98.880	-82.2228
8.750000	99.011	-83.2804
8.850000	99.108	-84.0820
9.000000	99.251	-85.2666
9.120000	99.361	-86.1982
9.250000	99.478	-87.1917
9.380000	99.591	-88.1697
9.500000	99.693	-89.0582
9.620000	99.793	-89.9331
9.750000	99.897	-90.8665
9.880000	99.994	-91.7844
10.000000	100.075	-92.6183
10.150000	100.167	-93.6432
10.300000	100.251	-94.6486
10.440000	100.324	-95.5700
10.600000	100.404	-96.6038
10.750000	100.476	-97.5546
10.900000	100.546	-98.4886
11.060000	100.618	-99.4669
11.200000	100.679	-100.3085
11.380000	100.755	-101.3715
11.500000	100.805	-102.0689
11.720000	100.892	-103.3250
11.800000	100.922	-103.7749
12.060000	101.018	-105.2127
12.200000	101.068	-105.9721
12.410000	101.142	-107.0926
12.500000	101.176	-107.5661
12.650000	101.235	-108.3466
12.800000	101.295	-109.1164
13.150000	101.431	-110.8718
13.200000	101.450	-111.1179
13.400000	101.523	-112.0912
13.600000	101.593	-113.0464
13.800000	101.660	-113.9837
14.000000	101.725	-114.9032
14.300000	101.817	-116.2501
14.500000	101.876	-117.1269
14.750000	101.946	-118.2003
15.000000	102.013	-119.2497
15.250000	102.076	-120.2763
15.500000	102.138	-121.2815
15.750000	102.196	-122.2662
16.000000	102.254	-123.2313
16.250000	102.310	-124.1777
16.500000	102.365	-125.1062
16.750000	102.418	-126.0179
17.000000	102.469	-126.9136
17.250000	102.518	-127.7944
17.500000	102.565	-128.6611
17.750000	102.609	-129.5138
18.000000	102.651	-130.3522
18.250000	102.692	-131.1753
18.500000	102.729	-131.9819
18.750000	102.766	-132.7711
19.000000	102.800	-133.5425
19.250000	102.833	-134.2965
19.500000	102.866	-135.0348
19.750000	102.898	-135.7596
20.000000	102.929	-136.4734
20.299999	102.966	-137.3190
20.600000	103.002	-138.1543
20.900000	103.035	-138.9790
21.200001	103.065	-139.7903
21.400000	103.084	-140.3218
21.799999	103.119	-141.3587
22.000000	103.135	-141.8634
22.400000	103.166	-142.8474
22.700001	103.188	-143.5677
23.000000	103.210	-144.2769
23.299999	103.231	-144.9773
23.600000	103.249	-145.6687
24.000000	103.272	-146.5726
24.299999	103.286	-147.2338
24.700001	103.305	-148.0924
25.000000	103.317	-148.7217
25.400000	103.333	-149.5479
25.799999	103.348	-150.3640
26.200001	103.360	-151.1679
26.500000	103.367	-151.7585
26.900000	103.374	-152.5249
27.200001	103.380	-153.0847
27.600000	103.388	-153.8175
28.000000	103.395	-154.5429
28.500000	103.402	-155.4418
29.000000	103.404	-156.3181
29.500000	103.404	-157.1563
30.000000	103.405	-157.9606
30.400000	103.406	-158.5919
30.700001	103.407	-159.0629
31.100000	103.407	-159.6862
31.500000	103.405	-160.2981
32.000000	103.401	-161.0390
32.500000	103.397	-161.7563
33.000000	103.393	-162.4597
33.500000	103.388	-163.1517
34.000000	103.380	-163.8267
34.500000	103.372	-164.4831
35.000000	103.365	-165.1275
35.500000	103.356	-165.7660
36.000000	103.347	-166.3976
36.500000	103.336	-167.0192
37.000000	103.324	-167.6321
37.500000	103.311	-168.2375
38.200001	103.290	-169.0597
38.700001	103.273	-169.6164
39.500000	103.251	-170.4716
40.000000	103.240	-171.0085
40.599998	103.224	-171.6580
41.200001	103.205	-172.2886
41.799999	103.185	-172.8862
42.500000	103.162	-173.5584
43.099998	103.143	-174.1278
43.700001	103.122	-174.6878
44.400002	103.096	-175.3238
45.000000	103.073	-175.8568
45.500000	103.054	-176.2931
46.200001	103.026	-176.8945
46.799999	103.001	-177.4065
47.500000	102.968	-177.9908
48.200001	102.934	-178.5376
48.700001	102.911	-178.9088
49.400002	102.882	-179.4305
50.000000	102.854	-179.8862
50.799999	102.809	179.5256
51.500000	102.768	179.0336
52.200001	102.724	178.5485
53.000000	102.670	178.0384
53.799999	102.620	177.5977
54.500000	102.583	177.2161
55.200001	102.548	176.8115
56.000000	102.505	176.3559
57.000000	102.454	175.7885
58.000000	102.398	175.2052
59.000000	102.342	174.6830
60.000000	102.295	174.1417
60.799999	102.254	173.6700
61.500000	102.214	173.2751
62.200001	102.175	172.8991
63.000000	102.132	172.4720
64.000000	102.080	171.9567
65.000000	102.030	171.4809
66.000000	101.981	171.0184
67.000000	101.930	170.5737
68.000000	101.881	170.1633
69.000000	101.836	169.7429
70.000000	101.788	169.3047
71.000000	101.737	168.8832
72.000000	101.686	168.4842
73.000000	101.637	168.0989
74.000000	101.589	167.7184
75.000000	101.542	167.3526
76.199997	101.486	166.9344
77.500000	101.424	166.4827
78.800003	101.356	166.0669
80.000000	101.291	165.7278
81.199997	101.224	165.3934
82.500000	101.151	165.0439
83.800003	101.081	164.6948
85.000000	101.017	164.3879
86.199997	100.959	164.1254
87.500000	100.904	163.8521
88.500000	100.860	163.6332
90.000000	100.791	163.3267
91.199997	100.731	163.0713
92.500000	100.660	162.8169
93.800003	100.592	162.5682
95.000000	100.533	162.3213
96.199997	100.475	162.0479
97.500000	100.410	161.7719
98.800003	100.347	161.5645
100.000000	100.293	161.3867
101.500000	100.224	161.1519
103.000000	100.151	160.9232
104.400002	100.083	160.7202
106.000000	100.008	160.4814
107.500000	99.936	160.2516
109.000000	99.862	160.0718
110.599998	99.785	159.9172
112.000000	99.719	159.7965
113.800003	99.634	159.6395
115.000000	99.577	159.5270
117.199997	99.476	159.3399
118.000000	99.441	159.2798
120.599998	99.332	159.0913
122.000000	99.273	159.0099
124.099998	99.186	158.9073
125.000000	99.151	158.8680
126.500000	99.099	158.8103
128.000000	99.054	158.7441
131.500000	98.954	158.5620
132.000000	98.940	158.5403
134.000000	98.885	158.4662
136.000000	98.831	158.4075
138.000000	98.775	158.3921
140.000000	98.722	158.4218
143.000000	98.648	158.4513
145.000000	98.604	158.4608
147.500000	98.556	158.5249
150.000000	98.524	158.6261
152.500000	98.503	158.7386
155.000000	98.501	158.8406
157.500000	98.529	158.8967
160.000000	98.589	158.7104
162.500000	98.649	158.0825
165.000000	98.673	157.0145
167.500000	98.635	155.7320
170.000000	98.539	154.4831
172.500000	98.411	153.2241
175.000000	98.242	151.7555
177.500000	97.970	150.1707
180.000000	97.549	149.1492
182.500000	97.057	149.5537
185.000000	96.667	151.3707
187.500000	96.480	153.6553
190.000000	96.453	155.4615
192.500000	96.487	156.5280
195.000000	96.517	157.0547
197.500000	96.521	157.3370
200.000000	96.503	157.5361
203.000000	96.466	157.7243
206.000000	96.417	157.8558
209.000000	96.356	157.9550
212.000000	96.292	158.0856
214.000000	96.251	158.1852
218.000000	96.160	158.4263
220.000000	96.111	158.5471
224.000000	96.009	158.7781
227.000000	95.929	159.0187
230.000000	95.848	159.2995
233.000000	95.765	159.6052
236.000000	95.681	159.9693
240.000000	95.580	160.6272
243.000000	95.536	161.1315
247.000000	95.471	161.4094
250.000000	95.384	161.7281
254.000000	95.280	162.4382
258.000000	95.199	163.1967
262.000000	95.128	163.9906
265.000000	95.086	164.6450
269.000000	95.054	165.5836
272.000000	95.054	166.2720
276.000000	95.083	167.0478
280.000000	95.135	167.5868
285.000000	95.198	167.9432
290.000000	95.236	168.0105
295.000000	95.246	167.9574
300.000000	95.230	167.8888
304.000000	95.202	167.8504
307.000000	95.176	167.8396
311.000000	95.137	167.8477
315.000000	95.096	167.8977
320.000000	95.047	168.0027
325.000000	95.001	168.1543
330.000000	94.956	168.3488
335.000000	94.911	168.5639
340.000000	94.868	168.7858
345.000000	94.824	169.0159
350.000000	94.781	169.2570
355.000000	94.740	169.5164
360.000000	94.700	169.7836
365.000000	94.662	170.0741
370.000000	94.624	170.3869
375.000000	94.585	170.6896
382.000000	94.534	171.1239
387.000000	94.503	171.4657
395.000000	94.459	171.9931
400.000000	94.432	172.3043
406.000000	94.399	172.6749
412.000000	94.366	173.0443
418.000000	94.334	173.4365
425.000000	94.300	173.8865
431.000000	94.273	174.2722
437.000000	94.244	174.6677
444.000000	94.210	175.1153
450.000000	94.183	175.4960
455.000000	94.164	175.8126
462.000000	94.137	176.2643
468.000000	94.113	176.6619
475.000000	94.091	177.1220
482.000000	94.070	177.5674
487.000000	94.054	177.8761
494.000000	94.032	178.3192
500.000000	94.016	178.7032
508.000000	93.999	179.2198
515.000000	93.986	179.6697
522.000000	93.975	-179.8856
530.000000	93.966	-179.3808
538.000000	93.957	-178.8703
545.000000	93.950	-178.4270
552.000000	93.942	-177.9955
560.000000	93.935	-177.5050
570.000000	93.929	-176.8974
580.000000	93.924	-176.3027
590.000000	93.919	-175.7080
600.000000	93.916	-175.1129
608.000000	93.914	-174.6492
615.000000	93.912	-174.2484
622.000000	93.912	-173.8514
630.000000	93.913	-173.4033
640.000000	93.916	-172.8425
650.000000	93.920	-172.2930
660.000000	93.924	-171.7581
670.000000	93.928	-171.2143
680.000000	93.927	-170.6541
690.000000	93.921	-170.0839
700.000000	93.913	-169.4857
710.000000	93.901	-168.8547
720.000000	93.886	-168.1823
730.000000	93.871	-167.4459
740.000000	93.858	-166.6419
750.000000	93.849	-165.7739
762.000000	93.846	-164.6462
775.000000	93.860	-163.3299
788.000000	93.896	-161.9460
800.000000	93.947	-160.6667
812.000000	94.012	-159.4364
825.000000	94.098	-158.1828
838.000000	94.196	-157.0253
850.000000	94.293	-156.0490
862.000000	94.391	-155.1553
875.000000	94.496	-154.2587
885.000000	94.576	-153.6062
900.000000	94.695	-152.6666
912.000000	94.790	-151.9376
925.000000	94.892	-151.1663
938.000000	94.996	-150.4160
950.000000	95.093	-149.7362
962.000000	95.191	-149.0662
975.000000	95.299	-148.3631
988.000000	95.406	-147.6895
1000.000000	95.500	-147.0819
1015.000000	95.601	-146.3476
1030.000000	95.695	-145.6493
1044.000000	95.784	-145.0341
1060.000000	95.888	-144.3808
1075.000000	95.987	-143.8039
1090.000000	96.088	-143.2608
1106.000000	96.198	-142.7220
1120.000000	96.294	-142.2810
1138.000000	96.417	-141.7644
1150.000000	96.498	-141.4516
1172.000000	96.648	-140.9219
1180.000000	96.702	-140.7435
1206.000000	96.876	-140.2086
1220.000000	96.968	-139.9450
1241.000000	97.110	-139.5822
1250.000000	97.176	-139.4352
1265.000000	97.294	-139.2010
1280.000000	97.419	-138.9788
1315.000000	97.714	-138.5014
1320.000000	97.756	-138.4377
1340.000000	97.923	-138.1900
1360.000000	98.091	-137.9528
1380.000000	98.260	-137.7304
1400.000000	98.430	-137.5252
1430.000000	98.689	-137.2426
1450.000000	98.863	-137.0773
1475.000000	99.085	-136.8989
1500.000000	99.312	-136.7528
1525.000000	99.543	-136.6469
1550.000000	99.779	-136.5868
1575.000000	100.020	-136.5790
1600.000000	100.268	-136.6295
1625.000000	100.526	-136.7431
1650.000000	100.790	-136.9296
1675.000000	101.058	-137.1954
1700.000000	101.328	-137.5437
1725.000000	101.601	-137.9841
1750.000000	101.875	-138.5255
1775.000000	102.149	-139.1715
1800.000000	102.421	-139.9254
1825.000000	102.690	-140.7913
1850.000000	102.953	-141.7759
1875.000000	103.209	-142.8789
1900.000000	103.456	-144.0975
1925.000000	103.691	-145.4301
1950.000000	103.913	-146.8746
1975.000000	104.120	-148.4219
2000.000000	104.309	-150.0605
2030.000000	104.512	-152.1309
2060.000000	104.685	-154.2892
2090.000000	104.825	-156.5058
2120.000000	104.933	-158.7505
2140.000000	104.986	-160.2461
2180.000000	105.049	-163.1920
2200.000000	105.060	-164.6264
2240.000000	105.046	-167.3823
2270.000000	105.007	-169.3275
2300.000000	104.948	-171.1510
2330.000000	104.870	-172.8440
2360.000000	104.777	-174.3957
2400.000000	104.638	-176.2231
2430.000000	104.529	-177.4352
2470.000000	104.379	-178.8609
2500.000000	104.264	-179.7891
2540.000000	104.113	179.1491
2580.000000	103.966	178.2696
2620.000000	103.827	177.5525
2650.000000	103.730	177.1075
2690.000000	103.609	176.6233
2720.000000	103.527	176.3311
2760.000000	103.428	176.0228
2800.000000	103.342	175.7912
2850.000000	103.254	175.5865
2900.000000	103.186	175.4482
2950.000000	103.140	175.3499
3000.000000	103.115	175.2668
3040.000000	103.109	175.1979
3070.000000	103.114	175.1394
3110.000000	103.132	175.0407
3150.000000	103.166	174.9063
3200.000000	103.233	174.6762
3250.000000	103.320	174.3553
3300.000000	103.423	173.9276
3350.000000	103.536	173.3727
3400.000000	103.658	172.6738
3450.000000	103.783	171.8147
3500.000000	103.909	170.7803
3550.000000	104.028	169.5616
3600.000000	104.136	168.1546
3650.000000	104.226	166.5630
3700.000000	104.291	164.8013
3750.000000	104.325	162.8941
3820.000000	104.310	160.0519
3870.000000	104.251	157.9612
3950.000000	104.064	154.6557
4000.000000	103.885	152.6932
4060.000000	103.601	150.5351
4120.000000	103.259	148.6809
4180.000000	102.879	147.2166
4250.000000	102.414	146.0804
4310.000000	102.022	145.6078
4370.000000	101.658	145.5463
4440.000000	101.292	145.8604
4500.000000	101.039	146.3002
4550.000000	100.875	146.6597
4620.000000	100.704	146.9485
4680.000000	100.590	146.8426
4750.000000	100.455	146.2193
4820.000000	100.271	145.1323
4870.000000	100.089	144.1998
4940.000000	99.758	142.9081
5000.000000	99.412	142.0051
5080.000000	98.892	141.3059
5150.000000	98.411	141.2458
5220.000000	97.930	141.6886
5300.000000	97.401	142.7296
5380.000000	96.909	144.2378
5450.000000	96.513	145.8583
5520.000000	96.150	147.6992
5600.000000	95.777	150.0179
5700.000000	95.370	153.1599
5800.000000	95.030	156.5092
5900.000000	94.755	160.0152
6000.000000	94.547	163.6312
6080.000000	94.427	166.5724
6150.000000	94.356	169.1681
6220.000000	94.314	171.7754
6300.000000	94.299	174.7581
6400.000000	94.321	178.4686
6500.000000	94.396	-177.8621
6600.000000	94.531	-174.2563
6700.000000	94.731	-170.7463
6800.000000	95.001	-167.3610
6900.000000	95.348	-164.1436
7000.000000	95.780	-161.1615
7100.000000	96.305	-158.4982
7200.000000	96.928	-156.2729
7300.000000	97.653	-154.6454
7400.000000	98.481	-153.8320
7500.000000	99.406	-154.1323
7620.000000	100.605	-156.5100
7750.000000	101.881	-162.3026
7880.000000	102.871	-171.7315
8000.000000	103.267	177.2243
8120.000000	103.044	165.8094
8250.000000	102.193	155.2132
8380.000000	100.968	147.6652
8500.000000	99.732	143.3778
8620.000000	98.531	141.1159
8750.000000	97.336	140.2684
8850.000000	96.503	140.3979
9000.000000	95.387	141.4551
9120.000000	94.597	142.8305
9250.000000	93.832	144.6898
9380.000000	93.156	146.8085
9500.000000	92.607	148.8841
9620.000000	92.128	150.9550
9750.000000	91.680	153.0627
9880.000000	91.289	154.9227
10000.000000	90.960	156.3859
10150.000000	90.566	157.8752
10300.000000	90.164	158.9940
10440.000000	89.758	159.7495
10600.000000	89.239	160.4207
10750.000000	88.695	161.0618
10900.000000	88.107	161.8724
11060.000000	87.454	162.8904
11200.000000	86.850	163.7298
11380.000000	85.975	164.8091
11500.000000	85.317	165.6849
11720.000000	83.900	167.8754
11800.000000	83.286	169.2056
12060.000000	81.115	178.9998
12200.000000	80.226	-171.8636
12410.000000	79.755	-157.1432
12500.000000	79.819	-151.8919
12650.000000	80.066	-145.2051
12800.000000	80.310	-140.4816
13150.000000	80.710	-132.6576
13200.000000	80.748	-131.9731
13400.000000	80.726	-130.1342
13600.000000	80.396	-128.1811
13800.000000	79.895	-124.7476
14000.000000	79.410	-119.6066
14300.000000	79.016	-110.1953
14500.000000	79.010	-104.1200
14750.000000	79.244	-97.3928
15000.000000	79.762	-93.4029
15250.000000	79.837	-93.9277
15500.000000	79.257	-91.8244
15750.000000	78.903	-85.8647
16000.000000	79.150	-80.0466
16250.000000	79.801	-77.7696
16500.000000	80.229	-79.8193
16750.000000	79.959	-83.1989
17000.000000	79.095	-83.7542
17250.000000	78.161	-79.7975
17500.000000	77.630	-73.1259
17750.000000	77.541	-66.8411
18000.000000	77.646	-62.2602
18250.000000	77.787	-58.9688
18500.000000	77.945	-56.7545
18750.000000	78.080	-55.8268
19000.000000	78.120	-56.3732
19250.000000	77.969	-58.3713
19500.000000	77.524	-61.3552
19750.000000	76.804	-64.4781
20000.000000	76.202	-66.6218
