* Measurement data measured by REW V5.30
* Source: ASIO ASIO4ALL v2, EPOS GSX 300 1
* Format: 256k Log Swept Sine, 1 sweep at -12.7 dBFS with no timing reference
* Dated: 2023. 12. 28 ¿ÀÀü 1:36:02
* REW Settings:
*  C-weighting compensation: Off
*  Target level: 75.0 dB
* Note: ; 
* Measurement: R Red
* Smoothing: 1/24 octave
* Frequency Step: 1/48 octave
* Start Frequency: 1.000 Hz
*
* Freq(Hz)	SPL(dB)	Phase(degrees)
1.000000	58.339	42.7456
1.015000	58.748	42.8388
1.030000	59.149	42.8781
1.044000	59.515	42.8681
1.060000	59.921	42.8039
1.075000	60.289	42.6952
1.090000	60.644	42.5436
1.106000	61.008	42.3498
1.120000	61.320	42.1752
1.138000	61.715	41.9566
1.150000	61.974	41.8140
1.172000	62.443	41.5541
1.180000	62.612	41.4590
1.206000	63.151	41.1431
1.220000	63.437	40.9664
1.241000	63.859	40.6898
1.250000	64.037	40.5663
1.265000	64.332	40.3531
1.280000	64.623	40.1300
1.315000	65.290	39.5669
1.320000	65.383	39.4813
1.340000	65.755	39.1253
1.360000	66.120	38.7469
1.380000	66.480	38.3456
1.400000	66.836	37.9206
1.430000	67.359	37.2384
1.450000	67.702	36.7544
1.475000	68.123	36.1287
1.500000	68.535	35.5095
1.525000	68.935	34.9072
1.550000	69.326	34.3172
1.575000	69.707	33.7344
1.600000	70.079	33.1539
1.625000	70.443	32.5716
1.650000	70.799	31.9840
1.675000	71.148	31.3879
1.700000	71.490	30.7808
1.725000	71.827	30.1604
1.750000	72.158	29.5248
1.775000	72.485	28.8723
1.800000	72.807	28.2018
1.825000	73.126	27.5142
1.850000	73.440	26.8176
1.875000	73.748	26.1236
1.900000	74.048	25.4357
1.925000	74.343	24.7539
1.950000	74.631	24.0774
1.975000	74.914	23.4052
2.000000	75.192	22.7363
2.030000	75.518	21.9367
2.060000	75.838	21.1388
2.090000	76.151	20.3407
2.120000	76.460	19.5407
2.140000	76.663	19.0055
2.180000	77.063	17.9288
2.200000	77.260	17.3876
2.240000	77.646	16.3067
2.270000	77.929	15.5017
2.300000	78.205	14.7028
2.330000	78.475	13.9101
2.360000	78.739	13.1234
2.400000	79.084	12.0832
2.430000	79.337	11.3091
2.470000	79.669	10.2837
2.500000	79.912	9.5188
2.540000	80.232	8.5031
2.580000	80.546	7.4909
2.620000	80.852	6.4834
2.650000	81.077	5.7321
2.690000	81.369	4.7378
2.720000	81.583	3.9982
2.760000	81.863	3.0209
2.800000	82.137	2.0540
2.850000	82.471	0.8601
2.900000	82.799	-0.3182
2.950000	83.118	-1.4833
3.000000	83.429	-2.6386
3.040000	83.671	-3.5552
3.070000	83.849	-4.2375
3.110000	84.082	-5.1393
3.150000	84.310	-6.0314
3.200000	84.589	-7.1319
3.250000	84.862	-8.2158
3.300000	85.130	-9.2839
3.350000	85.391	-10.3401
3.400000	85.646	-11.3862
3.450000	85.894	-12.4211
3.500000	86.136	-13.4432
3.550000	86.373	-14.4513
3.600000	86.605	-15.4446
3.650000	86.833	-16.4233
3.700000	87.056	-17.3894
3.750000	87.275	-18.3457
3.820000	87.572	-19.6680
3.870000	87.779	-20.5994
3.950000	88.102	-22.0646
4.000000	88.299	-22.9643
4.060000	88.531	-24.0291
4.120000	88.758	-25.0810
4.180000	88.979	-26.1206
4.250000	89.231	-27.3167
4.310000	89.441	-28.3265
4.370000	89.648	-29.3218
4.440000	89.884	-30.4665
4.500000	90.081	-31.4364
4.550000	90.242	-32.2367
4.620000	90.463	-33.3441
4.680000	90.648	-34.2803
4.750000	90.860	-35.3571
4.820000	91.067	-36.4197
4.870000	91.212	-37.1715
4.940000	91.410	-38.2136
5.000000	91.576	-39.0962
5.080000	91.794	-40.2565
5.150000	91.979	-41.2568
5.220000	92.161	-42.2459
5.300000	92.363	-43.3636
5.380000	92.560	-44.4659
5.450000	92.729	-45.4165
5.520000	92.894	-46.3546
5.600000	93.078	-47.4142
5.700000	93.302	-48.7207
5.800000	93.520	-50.0044
5.900000	93.731	-51.2646
6.000000	93.936	-52.5056
6.080000	94.096	-53.4847
6.150000	94.233	-54.3304
6.220000	94.367	-55.1655
6.300000	94.517	-56.1084
6.400000	94.700	-57.2717
6.500000	94.878	-58.4169
6.600000	95.051	-59.5429
6.700000	95.220	-60.6517
6.800000	95.384	-61.7449
6.900000	95.544	-62.8211
7.000000	95.699	-63.8802
7.100000	95.851	-64.9244
7.200000	95.999	-65.9537
7.300000	96.143	-66.9670
7.400000	96.284	-67.9649
7.500000	96.420	-68.9491
7.620000	96.580	-70.1111
7.750000	96.748	-71.3455
7.880000	96.911	-72.5572
8.000000	97.057	-73.6553
8.120000	97.199	-74.7332
8.250000	97.348	-75.8804
8.380000	97.493	-77.0062
8.500000	97.623	-78.0265
8.620000	97.750	-79.0303
8.750000	97.884	-80.0993
8.850000	97.985	-80.9088
9.000000	98.132	-82.1041
9.120000	98.247	-83.0442
9.250000	98.369	-84.0473
9.380000	98.487	-85.0355
9.500000	98.593	-85.9344
9.620000	98.698	-86.8212
9.750000	98.807	-87.7690
9.880000	98.909	-88.7029
10.000000	98.995	-89.5529
10.150000	99.092	-90.5999
10.300000	99.181	-91.6287
10.440000	99.259	-92.5729
10.600000	99.343	-93.6329
10.750000	99.419	-94.6079
10.900000	99.492	-95.5653
11.060000	99.567	-96.5668
11.200000	99.631	-97.4272
11.380000	99.710	-98.5121
11.500000	99.761	-99.2226
11.720000	99.851	-100.5002
11.800000	99.883	-100.9572
12.060000	99.983	-102.4166
12.200000	100.035	-103.1870
12.410000	100.113	-104.3240
12.500000	100.148	-104.8046
12.650000	100.209	-105.5973
12.800000	100.272	-106.3794
13.150000	100.413	-108.1638
13.200000	100.432	-108.4140
13.400000	100.507	-109.4031
13.600000	100.580	-110.3731
13.800000	100.649	-111.3240
14.000000	100.716	-112.2559
14.300000	100.811	-113.6195
14.500000	100.872	-114.5069
14.750000	100.945	-115.5937
15.000000	101.015	-116.6572
15.250000	101.082	-117.6988
15.500000	101.146	-118.7192
15.750000	101.208	-119.7187
16.000000	101.267	-120.6972
16.250000	101.325	-121.6547
16.500000	101.383	-122.5920
16.750000	101.438	-123.5102
17.000000	101.492	-124.4114
17.250000	101.543	-125.2976
17.500000	101.593	-126.1708
17.750000	101.641	-127.0320
18.000000	101.687	-127.8809
18.250000	101.730	-128.7166
18.500000	101.770	-129.5371
18.750000	101.808	-130.3404
19.000000	101.844	-131.1248
19.250000	101.879	-131.8900
19.500000	101.912	-132.6366
19.750000	101.945	-133.3666
20.000000	101.977	-134.0824
20.299999	102.014	-134.9266
20.600000	102.051	-135.7582
20.900000	102.087	-136.5792
21.200001	102.121	-137.3897
21.400000	102.142	-137.9237
21.799999	102.181	-138.9741
22.000000	102.199	-139.4893
22.400000	102.233	-140.4983
22.700001	102.256	-141.2353
23.000000	102.278	-141.9556
23.299999	102.299	-142.6596
23.600000	102.319	-143.3483
24.000000	102.344	-144.2453
24.299999	102.362	-144.9041
24.700001	102.386	-145.7673
25.000000	102.402	-146.4050
25.400000	102.422	-147.2434
25.799999	102.439	-148.0661
26.200001	102.454	-148.8682
26.500000	102.463	-149.4532
26.900000	102.474	-150.2097
27.200001	102.483	-150.7619
27.600000	102.494	-151.4852
28.000000	102.505	-152.2021
28.500000	102.515	-153.0907
29.000000	102.520	-153.9535
29.500000	102.521	-154.7694
30.000000	102.523	-155.5465
30.400000	102.528	-156.1645
30.700001	102.531	-156.6367
31.100000	102.533	-157.2767
31.500000	102.529	-157.9121
32.000000	102.519	-158.6676
32.500000	102.511	-159.3745
33.000000	102.506	-160.0657
33.500000	102.500	-160.7666
34.000000	102.490	-161.4548
34.500000	102.477	-162.0907
35.000000	102.471	-162.6788
35.500000	102.475	-163.2757
36.000000	102.482	-163.9278
36.500000	102.482	-164.6194
37.000000	102.471	-165.2942
37.500000	102.457	-165.9149
38.200001	102.439	-166.7129
38.700001	102.428	-167.2616
39.500000	102.409	-168.1031
40.000000	102.398	-168.6060
40.599998	102.388	-169.2100
41.200001	102.376	-169.8235
41.799999	102.359	-170.4265
42.500000	102.337	-171.0961
43.099998	102.319	-171.6515
43.700001	102.301	-172.2011
44.400002	102.280	-172.8351
45.000000	102.260	-173.3704
45.500000	102.244	-173.8084
46.200001	102.220	-174.4008
46.799999	102.201	-174.8909
47.500000	102.180	-175.4627
48.200001	102.155	-176.0403
48.700001	102.133	-176.4367
49.400002	102.101	-176.9423
50.000000	102.074	-177.3422
50.799999	102.040	-177.8867
51.500000	102.005	-178.3852
52.200001	101.967	-178.8759
53.000000	101.923	-179.4202
53.799999	101.878	-179.9542
54.500000	101.838	179.5965
55.200001	101.798	179.1635
56.000000	101.753	178.6920
57.000000	101.702	178.1141
58.000000	101.642	177.4759
59.000000	101.563	176.9873
60.000000	101.512	176.6381
60.799999	101.483	176.2177
61.500000	101.443	175.8010
62.200001	101.398	175.4384
63.000000	101.356	175.0618
64.000000	101.312	174.5590
65.000000	101.267	174.0449
66.000000	101.219	173.5799
67.000000	101.179	173.1488
68.000000	101.137	172.6924
69.000000	101.089	172.2873
70.000000	101.046	171.9299
71.000000	101.005	171.5531
72.000000	100.960	171.1873
73.000000	100.917	170.8374
74.000000	100.873	170.4815
75.000000	100.826	170.1257
76.199997	100.764	169.7275
77.500000	100.703	169.3774
78.800003	100.652	168.9740
80.000000	100.594	168.5707
81.199997	100.533	168.2408
82.500000	100.473	167.8868
83.800003	100.412	167.5285
85.000000	100.354	167.2117
86.199997	100.293	166.9154
87.500000	100.227	166.6419
88.500000	100.183	166.4598
90.000000	100.122	166.1140
91.199997	100.064	165.8171
92.500000	99.998	165.5574
93.800003	99.935	165.3215
95.000000	99.877	165.1188
96.199997	99.820	164.9325
97.500000	99.763	164.7219
98.800003	99.703	164.4897
100.000000	99.645	164.2993
101.500000	99.574	164.0936
103.000000	99.504	163.9165
104.400002	99.441	163.7451
106.000000	99.365	163.5464
107.500000	99.297	163.3999
109.000000	99.237	163.2112
110.599998	99.169	162.9961
112.000000	99.111	162.8458
113.800003	99.039	162.6840
115.000000	98.991	162.5914
117.199997	98.904	162.4109
118.000000	98.870	162.3357
120.599998	98.759	162.1410
122.000000	98.702	162.0529
124.099998	98.625	161.9349
125.000000	98.594	161.8907
126.500000	98.548	161.8168
128.000000	98.502	161.7357
131.500000	98.393	161.6026
132.000000	98.378	161.5852
134.000000	98.318	161.5066
136.000000	98.257	161.4475
138.000000	98.205	161.4364
140.000000	98.159	161.4212
143.000000	98.087	161.4181
145.000000	98.036	161.4525
147.500000	97.980	161.5011
150.000000	97.930	161.5302
152.500000	97.883	161.5964
155.000000	97.841	161.7056
157.500000	97.814	161.8340
160.000000	97.800	161.9034
162.500000	97.794	161.9091
165.000000	97.796	161.8027
167.500000	97.798	161.5857
170.000000	97.795	161.2626
172.500000	97.790	160.8480
175.000000	97.817	160.3179
177.500000	97.897	159.2388
180.000000	97.909	156.6771
182.500000	97.540	153.3477
185.000000	96.839	153.0078
187.500000	96.384	155.6121
190.000000	96.267	157.7823
192.500000	96.252	158.9824
195.000000	96.240	159.6822
197.500000	96.216	160.1876
200.000000	96.188	160.5883
203.000000	96.153	160.9755
206.000000	96.117	161.2928
209.000000	96.076	161.5222
212.000000	96.030	161.7213
214.000000	95.999	161.8519
218.000000	95.928	162.1157
220.000000	95.891	162.2488
224.000000	95.819	162.4988
227.000000	95.763	162.6978
230.000000	95.705	162.9189
233.000000	95.650	163.1536
236.000000	95.593	163.3932
240.000000	95.508	163.7420
243.000000	95.445	164.1267
247.000000	95.404	164.6937
250.000000	95.379	164.8130
254.000000	95.303	165.0048
258.000000	95.220	165.3971
262.000000	95.147	165.8389
265.000000	95.099	166.1749
269.000000	95.045	166.6125
272.000000	95.008	166.9230
276.000000	94.962	167.3170
280.000000	94.917	167.6882
285.000000	94.861	168.1277
290.000000	94.806	168.5583
295.000000	94.751	168.9882
300.000000	94.698	169.4306
304.000000	94.656	169.7955
307.000000	94.626	170.0746
311.000000	94.589	170.4601
315.000000	94.559	170.8565
320.000000	94.534	171.3587
325.000000	94.523	171.8503
330.000000	94.521	172.3068
335.000000	94.524	172.7076
340.000000	94.528	173.0457
345.000000	94.528	173.3215
350.000000	94.523	173.5661
355.000000	94.512	173.7905
360.000000	94.498	174.0015
365.000000	94.483	174.2260
370.000000	94.466	174.4694
375.000000	94.445	174.7286
382.000000	94.417	175.1160
387.000000	94.402	175.3943
395.000000	94.377	175.8072
400.000000	94.360	176.0551
406.000000	94.338	176.3606
412.000000	94.314	176.6777
418.000000	94.290	177.0126
425.000000	94.261	177.4216
431.000000	94.236	177.7853
437.000000	94.211	178.1381
444.000000	94.186	178.5447
450.000000	94.167	178.9033
455.000000	94.152	179.2277
462.000000	94.131	179.6614
468.000000	94.115	-179.9880
475.000000	94.095	-179.5512
482.000000	94.077	-179.0987
487.000000	94.066	-178.7710
494.000000	94.054	-178.3234
500.000000	94.046	-177.9470
508.000000	94.038	-177.4475
515.000000	94.030	-177.0136
522.000000	94.025	-176.5811
530.000000	94.021	-176.0899
538.000000	94.019	-175.5951
545.000000	94.019	-175.1534
552.000000	94.019	-174.7175
560.000000	94.019	-174.2231
570.000000	94.021	-173.6023
580.000000	94.025	-172.9837
590.000000	94.030	-172.3593
600.000000	94.036	-171.7344
608.000000	94.043	-171.2326
615.000000	94.051	-170.7923
622.000000	94.060	-170.3532
630.000000	94.074	-169.8565
640.000000	94.098	-169.2385
650.000000	94.127	-168.6243
660.000000	94.160	-167.9975
670.000000	94.193	-167.3650
680.000000	94.230	-166.7452
690.000000	94.270	-166.1212
700.000000	94.314	-165.5137
710.000000	94.361	-164.9259
720.000000	94.411	-164.3507
730.000000	94.466	-163.8102
740.000000	94.521	-163.3189
750.000000	94.574	-162.8663
762.000000	94.635	-162.3653
775.000000	94.693	-161.8710
788.000000	94.735	-161.3990
800.000000	94.757	-160.9594
812.000000	94.764	-160.4797
825.000000	94.761	-159.8689
838.000000	94.754	-159.1461
850.000000	94.750	-158.3820
862.000000	94.753	-157.5396
875.000000	94.768	-156.5592
885.000000	94.789	-155.7717
900.000000	94.836	-154.5577
912.000000	94.887	-153.5835
925.000000	94.955	-152.5421
938.000000	95.035	-151.5254
950.000000	95.117	-150.6121
962.000000	95.206	-149.7317
975.000000	95.308	-148.8245
988.000000	95.415	-147.9651
1000.000000	95.510	-147.2068
1015.000000	95.615	-146.3100
1030.000000	95.716	-145.4723
1044.000000	95.812	-144.7445
1060.000000	95.925	-143.9703
1075.000000	96.033	-143.3035
1090.000000	96.143	-142.6897
1106.000000	96.263	-142.0866
1120.000000	96.367	-141.6057
1138.000000	96.501	-141.0410
1150.000000	96.590	-140.6925
1172.000000	96.753	-140.1175
1180.000000	96.812	-139.9268
1206.000000	97.002	-139.3561
1220.000000	97.103	-139.0794
1241.000000	97.258	-138.6996
1250.000000	97.329	-138.5482
1265.000000	97.456	-138.3103
1280.000000	97.590	-138.0875
1315.000000	97.904	-137.6194
1320.000000	97.948	-137.5575
1340.000000	98.127	-137.3256
1360.000000	98.306	-137.1089
1380.000000	98.485	-136.9026
1400.000000	98.665	-136.7203
1430.000000	98.937	-136.4836
1450.000000	99.122	-136.3477
1475.000000	99.356	-136.2094
1500.000000	99.593	-136.1122
1525.000000	99.835	-136.0565
1550.000000	100.081	-136.0460
1575.000000	100.332	-136.0904
1600.000000	100.590	-136.1974
1625.000000	100.858	-136.3705
1650.000000	101.132	-136.6181
1675.000000	101.409	-136.9456
1700.000000	101.689	-137.3634
1725.000000	101.971	-137.8782
1750.000000	102.253	-138.4961
1775.000000	102.535	-139.2216
1800.000000	102.815	-140.0580
1825.000000	103.091	-141.0153
1850.000000	103.361	-142.0954
1875.000000	103.624	-143.2965
1900.000000	103.876	-144.6191
1925.000000	104.116	-146.0619
1950.000000	104.341	-147.6190
1975.000000	104.549	-149.2807
2000.000000	104.739	-151.0351
2030.000000	104.941	-153.2454
2060.000000	105.111	-155.5438
2090.000000	105.245	-157.8952
2120.000000	105.345	-160.2622
2140.000000	105.392	-161.8338
2180.000000	105.440	-164.9169
2200.000000	105.444	-166.4100
2240.000000	105.413	-169.2599
2270.000000	105.361	-171.2554
2300.000000	105.289	-173.1160
2330.000000	105.201	-174.8333
2360.000000	105.100	-176.4040
2400.000000	104.950	-178.2625
2430.000000	104.831	-179.4727
2470.000000	104.673	179.1161
2500.000000	104.555	178.1933
2540.000000	104.400	177.1384
2580.000000	104.251	176.2672
2620.000000	104.112	175.5574
2650.000000	104.015	175.1180
2690.000000	103.896	174.6415
2720.000000	103.817	174.3535
2760.000000	103.722	174.0459
2800.000000	103.643	173.8096
2850.000000	103.564	173.5879
2900.000000	103.508	173.4233
2950.000000	103.475	173.2852
3000.000000	103.465	173.1473
3040.000000	103.472	173.0199
3070.000000	103.486	172.9069
3110.000000	103.517	172.7238
3150.000000	103.564	172.4977
3200.000000	103.648	172.1417
3250.000000	103.754	171.6602
3300.000000	103.871	171.0425
3350.000000	103.998	170.2814
3400.000000	104.132	169.3624
3450.000000	104.271	168.2637
3500.000000	104.412	166.9544
3550.000000	104.547	165.3950
3600.000000	104.667	163.5548
3650.000000	104.755	161.4405
3700.000000	104.801	159.0959
3750.000000	104.793	156.5927
3820.000000	104.682	152.9733
3870.000000	104.529	150.4210
3950.000000	104.159	146.6296
4000.000000	103.850	144.5664
4060.000000	103.407	142.5159
4120.000000	102.910	141.0154
4180.000000	102.388	140.1293
4250.000000	101.784	139.9077
4310.000000	101.298	140.3891
4370.000000	100.867	141.4173
4440.000000	100.462	143.1594
4500.000000	100.218	144.9397
4550.000000	100.098	146.4732
4620.000000	100.060	148.3961
4680.000000	100.134	149.5219
4750.000000	100.297	149.8636
4820.000000	100.458	148.9713
4870.000000	100.520	147.6397
4940.000000	100.476	145.1271
5000.000000	100.297	142.7701
5080.000000	99.877	139.9771
5150.000000	99.386	138.2444
5220.000000	98.837	137.3171
5300.000000	98.192	137.1982
5380.000000	97.573	137.9205
5450.000000	97.069	139.0898
5520.000000	96.606	140.6401
5600.000000	96.131	142.7616
5700.000000	95.614	145.7951
5800.000000	95.180	149.1298
5900.000000	94.826	152.6694
6000.000000	94.547	156.3530
6080.000000	94.378	159.3679
6150.000000	94.266	162.0412
6220.000000	94.189	164.7359
6300.000000	94.137	167.8227
6400.000000	94.121	171.6595
6500.000000	94.163	175.4363
6600.000000	94.270	179.1091
6700.000000	94.440	-177.3572
6800.000000	94.677	-173.9966
6900.000000	94.985	-170.8496
7000.000000	95.364	-167.9629
7100.000000	95.820	-165.3938
7200.000000	96.355	-163.2265
7300.000000	96.972	-161.5766
7400.000000	97.671	-160.6062
7500.000000	98.449	-160.5429
7620.000000	99.457	-162.1003
7750.000000	100.544	-166.3874
7880.000000	101.431	-173.6790
8000.000000	101.864	177.4523
8120.000000	101.801	167.8636
8250.000000	101.190	158.4639
8380.000000	100.185	151.3873
8500.000000	99.097	147.2368
8620.000000	97.995	145.1143
8750.000000	96.880	144.5742
8850.000000	96.106	145.0533
9000.000000	95.094	146.7173
9120.000000	94.404	148.5792
9250.000000	93.758	150.9282
9380.000000	93.208	153.4909
9500.000000	92.777	155.9474
9620.000000	92.419	158.4109
9750.000000	92.109	161.0060
9880.000000	91.875	163.4383
10000.000000	91.720	165.4670
10150.000000	91.595	167.5878
10300.000000	91.522	169.0981
10440.000000	91.470	169.8588
10600.000000	91.396	169.9034
10750.000000	91.270	169.1137
10900.000000	91.018	167.7045
11060.000000	90.579	166.2209
11200.000000	90.106	165.1885
11380.000000	89.372	163.9378
11500.000000	88.782	163.4307
11720.000000	87.578	163.7199
11800.000000	87.121	164.1874
12060.000000	85.594	166.7291
12200.000000	84.707	168.6650
12410.000000	83.210	173.1988
12500.000000	82.530	176.2978
12650.000000	81.482	-176.4481
12800.000000	80.743	-167.0278
13150.000000	80.628	-146.1990
13200.000000	80.729	-143.9622
13400.000000	81.232	-136.9432
13600.000000	81.753	-132.6996
13800.000000	82.129	-130.5800
14000.000000	82.292	-129.4952
14300.000000	82.214	-128.4070
14500.000000	81.987	-127.7733
14750.000000	81.511	-126.6454
15000.000000	80.839	-124.3848
15250.000000	80.099	-119.8388
15500.000000	79.759	-112.8696
15750.000000	79.830	-109.6284
16000.000000	79.431	-107.6316
16250.000000	79.153	-102.5191
16500.000000	79.337	-97.3020
16750.000000	79.739	-94.5267
17000.000000	80.022	-94.4824
17250.000000	79.891	-96.4693
17500.000000	79.106	-97.0427
17750.000000	78.211	-91.8341
18000.000000	77.967	-84.0498
18250.000000	78.267	-77.9344
18500.000000	78.850	-74.3218
18750.000000	79.562	-73.6656
19000.000000	80.217	-76.6045
19250.000000	80.542	-83.1283
19500.000000	80.271	-91.9631
19750.000000	79.367	-100.6673
20000.000000	78.468	-106.1948
