* Measurement data measured by REW V5.20.13
* Source: Frequency Response Averaged data
* Format: Averaged data produced from the rms magnitudes of R, R, R
* Dated: 2023. 10. 26 ¿ÀÈÄ 9:44:35
* REW Settings:
*  C-weighting compensation: Off
*  Target level: 75.0 dB
* Note: ; Averaged data produced from the rms magnitudes of R, R, R
* Measurement: R
* Smoothing: 1/24 octave
* Frequency Step: 1/48 octave
* Start Frequency: 2.200 Hz
*
* Freq(Hz)	SPL(dB)
2.200000	77.460
2.240000	77.722
2.270000	77.919
2.300000	78.117
2.330000	78.314
2.360000	78.511
2.400000	78.773
2.430000	78.970
2.470000	79.233
2.500000	79.430
2.540000	79.693
2.580000	79.967
2.620000	80.267
2.650000	80.500
2.690000	80.818
2.720000	81.060
2.760000	81.383
2.800000	81.703
2.850000	82.092
2.900000	82.462
2.950000	82.804
3.000000	83.124
3.040000	83.368
3.070000	83.545
3.110000	83.775
3.150000	83.999
3.200000	84.276
3.250000	84.552
3.300000	84.832
3.350000	85.113
3.400000	85.392
3.450000	85.669
3.500000	85.942
3.550000	86.212
3.600000	86.478
3.650000	86.739
3.700000	86.995
3.750000	87.247
3.820000	87.592
3.870000	87.834
3.950000	88.213
4.000000	88.447
4.060000	88.722
4.120000	88.993
4.180000	89.259
4.250000	89.563
4.310000	89.818
4.370000	90.070
4.440000	90.357
4.500000	90.599
4.550000	90.797
4.620000	91.069
4.680000	91.297
4.750000	91.559
4.820000	91.816
4.870000	91.995
4.940000	92.241
5.000000	92.449
5.080000	92.721
5.150000	92.955
5.220000	93.184
5.300000	93.441
5.380000	93.693
5.450000	93.911
5.520000	94.126
5.600000	94.368
5.700000	94.665
5.800000	94.958
5.900000	95.246
6.000000	95.531
6.080000	95.755
6.150000	95.950
6.220000	96.142
6.300000	96.360
6.400000	96.629
6.500000	96.894
6.600000	97.154
6.700000	97.410
6.800000	97.661
6.900000	97.906
7.000000	98.145
7.100000	98.379
7.200000	98.607
7.300000	98.828
7.400000	99.044
7.500000	99.252
7.620000	99.495
7.750000	99.750
7.880000	99.994
8.000000	100.212
8.120000	100.425
8.250000	100.648
8.380000	100.866
8.500000	101.064
8.620000	101.259
8.750000	101.466
8.850000	101.625
9.000000	101.860
9.120000	102.046
9.250000	102.247
9.380000	102.446
9.500000	102.627
9.620000	102.803
9.750000	102.990
9.880000	103.169
10.000000	103.325
10.150000	103.511
10.300000	103.685
10.440000	103.838
10.600000	104.003
10.750000	104.151
10.900000	104.292
11.060000	104.437
11.200000	104.558
11.380000	104.707
11.500000	104.802
11.720000	104.967
11.800000	105.023
12.060000	105.197
12.200000	105.285
12.410000	105.410
12.500000	105.462
12.650000	105.546
12.800000	105.626
13.150000	105.795
13.200000	105.817
13.400000	105.900
13.600000	105.978
13.800000	106.052
14.000000	106.127
14.300000	106.242
14.500000	106.323
14.750000	106.430
15.000000	106.543
15.250000	106.659
15.500000	106.773
15.750000	106.882
16.000000	106.982
16.250000	107.070
16.500000	107.141
16.750000	107.195
17.000000	107.230
17.250000	107.247
17.500000	107.247
17.750000	107.233
18.000000	107.207
18.250000	107.173
18.500000	107.134
18.750000	107.091
19.000000	107.045
19.250000	106.997
19.500000	106.949
19.750000	106.899
20.000000	106.851
20.299999	106.798
20.600000	106.754
20.900000	106.723
21.200001	106.707
21.400000	106.703
21.799999	106.711
22.000000	106.721
22.400000	106.746
22.700001	106.767
23.000000	106.792
23.299999	106.822
23.600000	106.856
24.000000	106.910
24.299999	106.952
24.700001	107.006
25.000000	107.042
25.400000	107.081
25.799999	107.113
26.200001	107.142
26.500000	107.163
26.900000	107.186
27.200001	107.199
27.600000	107.207
28.000000	107.205
28.500000	107.192
29.000000	107.173
29.500000	107.150
30.000000	107.122
30.400000	107.096
30.700001	107.075
31.100000	107.046
31.500000	107.016
32.000000	106.980
32.500000	106.944
33.000000	106.912
33.500000	106.887
34.000000	106.869
34.500000	106.859
35.000000	106.850
35.500000	106.840
36.000000	106.829
36.500000	106.816
37.000000	106.802
37.500000	106.786
38.200001	106.755
38.700001	106.724
39.500000	106.661
40.000000	106.617
40.599998	106.564
41.200001	106.515
41.799999	106.466
42.500000	106.409
43.099998	106.361
43.700001	106.315
44.400002	106.260
45.000000	106.213
45.500000	106.174
46.200001	106.120
46.799999	106.076
47.500000	106.028
48.200001	105.981
48.700001	105.945
49.400002	105.892
50.000000	105.842
50.799999	105.771
51.500000	105.706
52.200001	105.644
53.000000	105.577
53.799999	105.515
54.500000	105.461
55.200001	105.407
56.000000	105.343
57.000000	105.266
58.000000	105.190
59.000000	105.112
60.000000	105.040
60.799999	104.984
61.500000	104.937
62.200001	104.892
63.000000	104.846
64.000000	104.794
65.000000	104.745
66.000000	104.695
67.000000	104.644
68.000000	104.597
69.000000	104.553
70.000000	104.509
71.000000	104.464
72.000000	104.421
73.000000	104.378
74.000000	104.337
75.000000	104.298
76.199997	104.250
77.500000	104.194
78.800003	104.140
80.000000	104.093
81.199997	104.045
82.500000	103.991
83.800003	103.936
85.000000	103.889
86.199997	103.843
87.500000	103.794
88.500000	103.757
90.000000	103.698
91.199997	103.648
92.500000	103.596
93.800003	103.547
95.000000	103.502
96.199997	103.456
97.500000	103.407
98.800003	103.357
100.000000	103.308
101.500000	103.245
103.000000	103.184
104.400002	103.128
106.000000	103.065
107.500000	103.007
109.000000	102.948
110.599998	102.884
112.000000	102.829
113.800003	102.756
115.000000	102.708
117.199997	102.621
118.000000	102.589
120.599998	102.486
122.000000	102.431
124.099998	102.352
125.000000	102.320
126.500000	102.271
128.000000	102.223
131.500000	102.114
132.000000	102.099
134.000000	102.036
136.000000	101.972
138.000000	101.907
140.000000	101.841
143.000000	101.747
145.000000	101.685
147.500000	101.607
150.000000	101.531
152.500000	101.455
155.000000	101.380
157.500000	101.302
160.000000	101.220
162.500000	101.130
165.000000	101.034
167.500000	100.937
170.000000	100.840
172.500000	100.744
175.000000	100.652
177.500000	100.564
180.000000	100.480
182.500000	100.397
185.000000	100.313
187.500000	100.229
190.000000	100.142
192.500000	100.052
195.000000	99.960
197.500000	99.867
200.000000	99.777
203.000000	99.675
206.000000	99.581
209.000000	99.495
212.000000	99.417
214.000000	99.370
218.000000	99.285
220.000000	99.246
224.000000	99.167
227.000000	99.108
230.000000	99.047
233.000000	98.983
236.000000	98.915
240.000000	98.819
243.000000	98.745
247.000000	98.644
250.000000	98.567
254.000000	98.463
258.000000	98.360
262.000000	98.258
265.000000	98.183
269.000000	98.085
272.000000	98.011
276.000000	97.911
280.000000	97.809
285.000000	97.682
290.000000	97.558
295.000000	97.435
300.000000	97.314
304.000000	97.220
307.000000	97.150
311.000000	97.059
315.000000	96.973
320.000000	96.872
325.000000	96.775
330.000000	96.681
335.000000	96.587
340.000000	96.494
345.000000	96.403
350.000000	96.311
355.000000	96.221
360.000000	96.132
365.000000	96.045
370.000000	95.959
375.000000	95.874
382.000000	95.756
387.000000	95.675
395.000000	95.548
400.000000	95.470
406.000000	95.378
412.000000	95.287
418.000000	95.199
425.000000	95.101
431.000000	95.022
437.000000	94.947
444.000000	94.862
450.000000	94.792
455.000000	94.734
462.000000	94.657
468.000000	94.595
475.000000	94.526
482.000000	94.462
487.000000	94.419
494.000000	94.362
500.000000	94.317
508.000000	94.265
515.000000	94.224
522.000000	94.186
530.000000	94.148
538.000000	94.114
545.000000	94.089
552.000000	94.066
560.000000	94.043
570.000000	94.020
580.000000	94.002
590.000000	93.988
600.000000	93.978
608.000000	93.973
615.000000	93.971
622.000000	93.971
630.000000	93.976
640.000000	93.989
650.000000	94.009
660.000000	94.030
670.000000	94.052
680.000000	94.077
690.000000	94.107
700.000000	94.141
710.000000	94.175
720.000000	94.209
730.000000	94.241
740.000000	94.274
750.000000	94.308
762.000000	94.348
775.000000	94.391
788.000000	94.437
800.000000	94.484
812.000000	94.526
825.000000	94.561
838.000000	94.588
850.000000	94.615
862.000000	94.651
875.000000	94.698
885.000000	94.736
900.000000	94.798
912.000000	94.851
925.000000	94.913
938.000000	94.980
950.000000	95.045
962.000000	95.113
975.000000	95.191
988.000000	95.269
1000.000000	95.336
1015.000000	95.405
1030.000000	95.468
1044.000000	95.528
1060.000000	95.600
1075.000000	95.670
1090.000000	95.741
1106.000000	95.819
1120.000000	95.888
1138.000000	95.977
1150.000000	96.036
1172.000000	96.142
1180.000000	96.179
1206.000000	96.299
1220.000000	96.362
1241.000000	96.459
1250.000000	96.505
1265.000000	96.588
1280.000000	96.676
1315.000000	96.882
1320.000000	96.911
1340.000000	97.028
1360.000000	97.144
1380.000000	97.253
1400.000000	97.359
1430.000000	97.522
1450.000000	97.634
1475.000000	97.778
1500.000000	97.926
1525.000000	98.079
1550.000000	98.239
1575.000000	98.408
1600.000000	98.587
1625.000000	98.780
1650.000000	98.984
1675.000000	99.198
1700.000000	99.420
1725.000000	99.650
1750.000000	99.886
1775.000000	100.128
1800.000000	100.374
1825.000000	100.623
1850.000000	100.870
1875.000000	101.116
1900.000000	101.359
1925.000000	101.598
1950.000000	101.830
1975.000000	102.056
2000.000000	102.274
2030.000000	102.527
2060.000000	102.767
2090.000000	102.995
2120.000000	103.210
2140.000000	103.346
2180.000000	103.610
2200.000000	103.735
2240.000000	103.960
2270.000000	104.114
2300.000000	104.263
2330.000000	104.405
2360.000000	104.540
2400.000000	104.716
2430.000000	104.848
2470.000000	105.031
2500.000000	105.174
2540.000000	105.365
2580.000000	105.540
2620.000000	105.686
2650.000000	105.776
2690.000000	105.874
2720.000000	105.933
2760.000000	105.996
2800.000000	106.044
2850.000000	106.087
2900.000000	106.116
2950.000000	106.132
3000.000000	106.138
3040.000000	106.135
3070.000000	106.130
3110.000000	106.121
3150.000000	106.112
3200.000000	106.106
3250.000000	106.099
3300.000000	106.088
3350.000000	106.073
3400.000000	106.056
3450.000000	106.035
3500.000000	106.011
3550.000000	105.983
3600.000000	105.950
3650.000000	105.909
3700.000000	105.853
3750.000000	105.772
3820.000000	105.591
3870.000000	105.403
3950.000000	105.108
4000.000000	105.058
4060.000000	105.164
4120.000000	105.335
4180.000000	105.484
4250.000000	105.606
4310.000000	105.678
4370.000000	105.733
4440.000000	105.787
4500.000000	105.825
4550.000000	105.851
4620.000000	105.882
4680.000000	105.906
4750.000000	105.932
4820.000000	105.955
4870.000000	105.964
4940.000000	105.979
5000.000000	106.023
5080.000000	106.101
5150.000000	106.160
5220.000000	106.220
5300.000000	106.293
5380.000000	106.363
5450.000000	106.421
5520.000000	106.477
5600.000000	106.538
5700.000000	106.610
5800.000000	106.675
5900.000000	106.725
6000.000000	106.753
6080.000000	106.752
6150.000000	106.730
6220.000000	106.685
6300.000000	106.602
6400.000000	106.444
6500.000000	106.233
6600.000000	105.983
6700.000000	105.702
6800.000000	105.404
6900.000000	105.104
7000.000000	104.818
7100.000000	104.564
7200.000000	104.361
7300.000000	104.221
7400.000000	104.143
7500.000000	104.117
7620.000000	104.138
7750.000000	104.187
7880.000000	104.206
8000.000000	104.143
8120.000000	103.959
8250.000000	103.597
8380.000000	103.064
8500.000000	102.442
8620.000000	101.721
8750.000000	100.865
8850.000000	100.177
9000.000000	99.125
9120.000000	98.283
9250.000000	97.389
9380.000000	96.527
9500.000000	95.764
9620.000000	95.037
9750.000000	94.294
9880.000000	93.597
10000.000000	92.993
10150.000000	92.288
10300.000000	91.633
10440.000000	91.064
10600.000000	90.472
10750.000000	89.993
10900.000000	89.589
11060.000000	89.214
11200.000000	88.911
11380.000000	88.558
11500.000000	88.356
11720.000000	88.066
11800.000000	87.983
12060.000000	87.793
12200.000000	87.739
12410.000000	87.719
12500.000000	87.734
12650.000000	87.798
12800.000000	87.918
13150.000000	88.461
13200.000000	88.572
13400.000000	89.119
13600.000000	89.847
13800.000000	90.749
14000.000000	91.858
14300.000000	94.084
14500.000000	96.089
14750.000000	99.029
15000.000000	101.377
15250.000000	101.680
15500.000000	99.729
15750.000000	96.735
16000.000000	93.991
16250.000000	91.939
16500.000000	90.503
16750.000000	89.483
17000.000000	88.753
17250.000000	88.254
17500.000000	87.941
17750.000000	87.788
18000.000000	87.782
18250.000000	87.899
18500.000000	88.079
18750.000000	88.228
19000.000000	88.214
19250.000000	87.866
19500.000000	87.026
19750.000000	85.742
