* Measurement data measured by REW V5.20.13
* Source: Frequency Response Averaged data
* Format: Averaged data produced from the rms magnitudes of EQ Custom Flat L, EQ Custom Flat L, EQ Custom Flat L
* Dated: 2023. 10. 26 ¿ÀÈÄ 8:45:47
* REW Settings:
*  C-weighting compensation: Off
*  Target level: 75.0 dB
* Note: ; Averaged data produced from the rms magnitudes of EQ Custom Flat L, EQ Custom Flat L, EQ Custom Flat L
* Measurement: EQ Custom Flat L
* Smoothing: 1/24 octave
* Frequency Step: 1/48 octave
* Start Frequency: 2.200 Hz
*
* Freq(Hz)	SPL(dB)
2.200000	67.990
2.240000	68.280
2.270000	68.497
2.300000	68.715
2.330000	68.932
2.360000	69.150
2.400000	69.440
2.430000	69.658
2.470000	69.948
2.500000	70.165
2.540000	70.455
2.580000	70.756
2.620000	71.084
2.650000	71.338
2.690000	71.684
2.720000	71.947
2.760000	72.299
2.800000	72.646
2.850000	73.070
2.900000	73.473
2.950000	73.847
3.000000	74.198
3.040000	74.466
3.070000	74.660
3.110000	74.913
3.150000	75.161
3.200000	75.465
3.250000	75.768
3.300000	76.073
3.350000	76.379
3.400000	76.680
3.450000	76.979
3.500000	77.273
3.550000	77.563
3.600000	77.849
3.650000	78.129
3.700000	78.404
3.750000	78.674
3.820000	79.043
3.870000	79.301
3.950000	79.708
4.000000	79.958
4.060000	80.255
4.120000	80.546
4.180000	80.833
4.250000	81.162
4.310000	81.439
4.370000	81.714
4.440000	82.031
4.500000	82.299
4.550000	82.519
4.620000	82.824
4.680000	83.082
4.750000	83.380
4.820000	83.674
4.870000	83.882
4.940000	84.170
5.000000	84.414
5.080000	84.736
5.150000	85.014
5.220000	85.289
5.300000	85.599
5.380000	85.904
5.450000	86.167
5.520000	86.426
5.600000	86.718
5.700000	87.075
5.800000	87.424
5.900000	87.764
6.000000	88.095
6.080000	88.354
6.150000	88.575
6.220000	88.793
6.300000	89.036
6.400000	89.332
6.500000	89.619
6.600000	89.900
6.700000	90.173
6.800000	90.438
6.900000	90.698
7.000000	90.953
7.100000	91.203
7.200000	91.448
7.300000	91.690
7.400000	91.930
7.500000	92.167
7.620000	92.448
7.750000	92.750
7.880000	93.049
8.000000	93.322
8.120000	93.592
8.250000	93.881
8.380000	94.165
8.500000	94.420
8.620000	94.671
8.750000	94.935
8.850000	95.132
9.000000	95.418
9.120000	95.639
9.250000	95.871
9.380000	96.095
9.500000	96.295
9.620000	96.487
9.750000	96.688
9.880000	96.882
10.000000	97.053
10.150000	97.259
10.300000	97.461
10.440000	97.644
10.600000	97.852
10.750000	98.048
10.900000	98.243
11.060000	98.449
11.200000	98.629
11.380000	98.853
11.500000	98.998
11.720000	99.251
11.800000	99.338
12.060000	99.603
12.200000	99.736
12.410000	99.925
12.500000	100.005
12.650000	100.134
12.800000	100.262
13.150000	100.564
13.200000	100.609
13.400000	100.789
13.600000	100.976
13.800000	101.172
14.000000	101.373
14.300000	101.682
14.500000	101.887
14.750000	102.130
15.000000	102.355
15.250000	102.555
15.500000	102.727
15.750000	102.870
16.000000	102.986
16.250000	103.078
16.500000	103.147
16.750000	103.195
17.000000	103.225
17.250000	103.240
17.500000	103.241
17.750000	103.232
18.000000	103.217
18.250000	103.200
18.500000	103.185
18.750000	103.176
19.000000	103.177
19.250000	103.188
19.500000	103.212
19.750000	103.249
20.000000	103.298
20.299999	103.371
20.600000	103.457
20.900000	103.555
21.200001	103.659
21.400000	103.731
21.799999	103.876
22.000000	103.948
22.400000	104.088
22.700001	104.189
23.000000	104.285
23.299999	104.374
23.600000	104.454
24.000000	104.540
24.299999	104.585
24.700001	104.620
25.000000	104.629
25.400000	104.625
25.799999	104.609
26.200001	104.588
26.500000	104.569
26.900000	104.542
27.200001	104.520
27.600000	104.491
28.000000	104.464
28.500000	104.435
29.000000	104.411
29.500000	104.393
30.000000	104.386
30.400000	104.389
30.700001	104.396
31.100000	104.410
31.500000	104.427
32.000000	104.459
32.500000	104.515
33.000000	104.604
33.500000	104.723
34.000000	104.851
34.500000	104.963
35.000000	105.046
35.500000	105.099
36.000000	105.133
36.500000	105.160
37.000000	105.185
37.500000	105.205
38.200001	105.217
38.700001	105.213
39.500000	105.194
40.000000	105.179
40.599998	105.161
41.200001	105.146
41.799999	105.142
42.500000	105.153
43.099998	105.163
43.700001	105.163
44.400002	105.148
45.000000	105.130
45.500000	105.115
46.200001	105.097
46.799999	105.082
47.500000	105.066
48.200001	105.053
48.700001	105.044
49.400002	105.030
50.000000	105.016
50.799999	104.993
51.500000	104.969
52.200001	104.946
53.000000	104.925
53.799999	104.906
54.500000	104.892
55.200001	104.879
56.000000	104.866
57.000000	104.850
58.000000	104.840
59.000000	104.832
60.000000	104.830
60.799999	104.833
61.500000	104.834
62.200001	104.836
63.000000	104.838
64.000000	104.841
65.000000	104.846
66.000000	104.848
67.000000	104.845
68.000000	104.844
69.000000	104.846
70.000000	104.851
71.000000	104.860
72.000000	104.867
73.000000	104.872
74.000000	104.879
75.000000	104.891
76.199997	104.906
77.500000	104.924
78.800003	104.936
80.000000	104.940
81.199997	104.941
82.500000	104.937
83.800003	104.933
85.000000	104.930
86.199997	104.927
87.500000	104.919
88.500000	104.909
90.000000	104.894
91.199997	104.880
92.500000	104.863
93.800003	104.846
95.000000	104.829
96.199997	104.815
97.500000	104.798
98.800003	104.782
100.000000	104.770
101.500000	104.753
103.000000	104.730
104.400002	104.705
106.000000	104.676
107.500000	104.651
109.000000	104.627
110.599998	104.593
112.000000	104.562
113.800003	104.519
115.000000	104.487
117.199997	104.426
118.000000	104.403
120.599998	104.334
122.000000	104.305
124.099998	104.258
125.000000	104.238
126.500000	104.207
128.000000	104.180
131.500000	104.115
132.000000	104.106
134.000000	104.068
136.000000	104.025
138.000000	103.972
140.000000	103.913
143.000000	103.824
145.000000	103.762
147.500000	103.684
150.000000	103.607
152.500000	103.540
155.000000	103.484
157.500000	103.432
160.000000	103.370
162.500000	103.297
165.000000	103.213
167.500000	103.120
170.000000	103.025
172.500000	102.934
175.000000	102.847
177.500000	102.762
180.000000	102.674
182.500000	102.582
185.000000	102.489
187.500000	102.396
190.000000	102.303
192.500000	102.209
195.000000	102.114
197.500000	102.018
200.000000	101.925
203.000000	101.819
206.000000	101.714
209.000000	101.608
212.000000	101.505
214.000000	101.439
218.000000	101.305
220.000000	101.239
224.000000	101.108
227.000000	101.007
230.000000	100.905
233.000000	100.800
236.000000	100.697
240.000000	100.562
243.000000	100.464
247.000000	100.338
250.000000	100.246
254.000000	100.123
258.000000	99.998
262.000000	99.870
265.000000	99.773
269.000000	99.644
272.000000	99.547
276.000000	99.419
280.000000	99.291
285.000000	99.133
290.000000	98.975
295.000000	98.819
300.000000	98.663
304.000000	98.537
307.000000	98.444
311.000000	98.323
315.000000	98.206
320.000000	98.064
325.000000	97.927
330.000000	97.793
335.000000	97.660
340.000000	97.527
345.000000	97.397
350.000000	97.269
355.000000	97.141
360.000000	97.015
365.000000	96.889
370.000000	96.764
375.000000	96.640
382.000000	96.469
387.000000	96.351
395.000000	96.166
400.000000	96.050
406.000000	95.911
412.000000	95.775
418.000000	95.641
425.000000	95.489
431.000000	95.360
437.000000	95.233
444.000000	95.090
450.000000	94.971
455.000000	94.872
462.000000	94.737
468.000000	94.624
475.000000	94.493
482.000000	94.365
487.000000	94.276
494.000000	94.155
500.000000	94.054
508.000000	93.922
515.000000	93.811
522.000000	93.702
530.000000	93.583
538.000000	93.470
545.000000	93.377
552.000000	93.285
560.000000	93.181
570.000000	93.052
580.000000	92.928
590.000000	92.808
600.000000	92.692
608.000000	92.600
615.000000	92.522
622.000000	92.447
630.000000	92.366
640.000000	92.273
650.000000	92.185
660.000000	92.097
670.000000	92.013
680.000000	91.932
690.000000	91.850
700.000000	91.768
710.000000	91.689
720.000000	91.614
730.000000	91.544
740.000000	91.473
750.000000	91.400
762.000000	91.319
775.000000	91.239
788.000000	91.164
800.000000	91.092
812.000000	91.015
825.000000	90.934
838.000000	90.865
850.000000	90.811
862.000000	90.761
875.000000	90.708
885.000000	90.669
900.000000	90.621
912.000000	90.588
925.000000	90.559
938.000000	90.538
950.000000	90.524
962.000000	90.515
975.000000	90.510
988.000000	90.509
1000.000000	90.502
1015.000000	90.481
1030.000000	90.458
1044.000000	90.442
1060.000000	90.430
1075.000000	90.423
1090.000000	90.417
1106.000000	90.414
1120.000000	90.416
1138.000000	90.421
1150.000000	90.425
1172.000000	90.435
1180.000000	90.438
1206.000000	90.452
1220.000000	90.460
1241.000000	90.477
1250.000000	90.488
1265.000000	90.516
1280.000000	90.550
1315.000000	90.639
1320.000000	90.652
1340.000000	90.701
1360.000000	90.753
1380.000000	90.805
1400.000000	90.859
1430.000000	90.945
1450.000000	91.006
1475.000000	91.088
1500.000000	91.176
1525.000000	91.268
1550.000000	91.370
1575.000000	91.491
1600.000000	91.628
1625.000000	91.777
1650.000000	91.938
1675.000000	92.113
1700.000000	92.301
1725.000000	92.491
1750.000000	92.682
1775.000000	92.881
1800.000000	93.088
1825.000000	93.297
1850.000000	93.507
1875.000000	93.714
1900.000000	93.918
1925.000000	94.115
1950.000000	94.306
1975.000000	94.490
2000.000000	94.666
2030.000000	94.871
2060.000000	95.071
2090.000000	95.271
2120.000000	95.475
2140.000000	95.614
2180.000000	95.883
2200.000000	96.008
2240.000000	96.228
2270.000000	96.370
2300.000000	96.496
2330.000000	96.609
2360.000000	96.713
2400.000000	96.839
2430.000000	96.926
2470.000000	97.031
2500.000000	97.103
2540.000000	97.187
2580.000000	97.260
2620.000000	97.323
2650.000000	97.368
2690.000000	97.413
2720.000000	97.434
2760.000000	97.453
2800.000000	97.467
2850.000000	97.471
2900.000000	97.462
2950.000000	97.444
3000.000000	97.428
3040.000000	97.419
3070.000000	97.414
3110.000000	97.408
3150.000000	97.401
3200.000000	97.391
3250.000000	97.372
3300.000000	97.349
3350.000000	97.327
3400.000000	97.314
3450.000000	97.317
3500.000000	97.342
3550.000000	97.383
3600.000000	97.428
3650.000000	97.467
3700.000000	97.492
3750.000000	97.505
3820.000000	97.507
3870.000000	97.500
3950.000000	97.481
4000.000000	97.470
4060.000000	97.455
4120.000000	97.439
4180.000000	97.422
4250.000000	97.404
4310.000000	97.392
4370.000000	97.385
4440.000000	97.394
4500.000000	97.424
4550.000000	97.461
4620.000000	97.518
4680.000000	97.567
4750.000000	97.624
4820.000000	97.684
4870.000000	97.731
4940.000000	97.816
5000.000000	97.903
5080.000000	98.031
5150.000000	98.161
5220.000000	98.308
5300.000000	98.486
5380.000000	98.669
5450.000000	98.830
5520.000000	98.987
5600.000000	99.161
5700.000000	99.377
5800.000000	99.603
5900.000000	99.855
6000.000000	100.138
6080.000000	100.380
6150.000000	100.591
6220.000000	100.793
6300.000000	101.004
6400.000000	101.228
6500.000000	101.406
6600.000000	101.543
6700.000000	101.636
6800.000000	101.685
6900.000000	101.690
7000.000000	101.658
7100.000000	101.600
7200.000000	101.531
7300.000000	101.459
7400.000000	101.383
7500.000000	101.301
7620.000000	101.189
7750.000000	101.033
7880.000000	100.825
8000.000000	100.560
8120.000000	100.190
8250.000000	99.637
8380.000000	98.908
8500.000000	98.087
8620.000000	97.152
8750.000000	96.050
8850.000000	95.166
9000.000000	93.822
9120.000000	92.753
9250.000000	91.625
9380.000000	90.543
9500.000000	89.592
9620.000000	88.691
9750.000000	87.769
9880.000000	86.900
10000.000000	86.145
10150.000000	85.261
10300.000000	84.439
10440.000000	83.739
10600.000000	83.015
10750.000000	82.400
10900.000000	81.855
11060.000000	81.368
11200.000000	81.029
11380.000000	80.684
11500.000000	80.486
11720.000000	80.165
11800.000000	80.063
12060.000000	79.796
12200.000000	79.693
12410.000000	79.594
12500.000000	79.575
12650.000000	79.577
12800.000000	79.631
13150.000000	80.056
13200.000000	80.153
13400.000000	80.636
13600.000000	81.289
13800.000000	82.139
14000.000000	83.222
14300.000000	85.448
14500.000000	87.461
14750.000000	90.328
15000.000000	92.441
15250.000000	92.445
15500.000000	90.311
15750.000000	87.299
16000.000000	84.583
16250.000000	82.577
16500.000000	81.179
16750.000000	80.166
17000.000000	79.432
17250.000000	78.919
17500.000000	78.585
17750.000000	78.414
18000.000000	78.397
18250.000000	78.503
18500.000000	78.668
18750.000000	78.798
19000.000000	78.732
19250.000000	78.256
19500.000000	77.207
19750.000000	75.675
