* Measurement data measured by REW V5.20.13
* Source: ASIO ASIO4ALL v2, EPOS GSX 300 1. Timing signal peak level -14.7 dBFS, measurement signal peak level -11.2 dBFS
* Format: 256k Log Swept Sine, 1 sweep using an acoustic timing reference
* Dated: 2023. 10. 26 ¿ÀÈÄ 9:55:03
* REW Settings:
*  C-weighting compensation: Off
*  Target level: 75.0 dB
* Note: ; Delay 0.0086 ms (3.0 mm, 0.12 in) using estimated IR delay relative to Acoustic reference played from refR.wav with no timing offset Clock adjustment: -134.6 ppm
* Measurement: EQ Custom Flat R
* Smoothing: 1/24 octave
* Frequency Step: 1/48 octave
* Start Frequency: 1.000 Hz
*
* Freq(Hz)	SPL(dB)	Phase(degrees)
1.000000	48.969	41.1765
1.015000	49.121	43.1718
1.030000	49.283	45.0934
1.044000	49.444	46.8105
1.060000	49.639	48.6706
1.075000	49.833	50.3040
1.090000	50.038	51.8192
1.106000	50.271	53.3042
1.120000	50.495	54.5522
1.138000	50.810	56.1043
1.150000	51.036	57.1056
1.172000	51.480	58.8707
1.180000	51.651	59.4896
1.206000	52.232	61.4148
1.220000	52.560	62.3960
1.241000	53.068	63.7936
1.250000	53.290	64.3650
1.265000	53.666	65.2799
1.280000	54.047	66.1476
1.315000	54.944	67.9849
1.320000	55.072	68.2256
1.340000	55.582	69.1332
1.360000	56.084	69.9511
1.380000	56.576	70.6778
1.400000	57.051	71.3118
1.430000	57.726	72.0857
1.450000	58.145	72.4813
1.475000	58.627	72.8264
1.500000	59.087	72.9122
1.525000	59.531	72.7445
1.550000	59.959	72.3559
1.575000	60.374	71.7789
1.600000	60.775	71.0459
1.625000	61.165	70.1895
1.650000	61.545	69.2423
1.675000	61.915	68.2366
1.700000	62.277	67.2051
1.725000	62.632	66.1802
1.750000	62.981	65.1945
1.775000	63.325	64.2804
1.800000	63.666	63.4704
1.825000	64.004	62.7972
1.850000	64.338	62.2530
1.875000	64.663	61.7553
1.900000	64.980	61.2945
1.925000	65.289	60.8645
1.950000	65.591	60.4594
1.975000	65.887	60.0735
2.000000	66.176	59.7007
2.030000	66.515	59.2623
2.060000	66.847	58.8241
2.090000	67.173	58.3758
2.120000	67.493	57.9073
2.140000	67.704	57.5786
2.180000	68.121	56.8685
2.200000	68.328	56.4810
2.240000	68.732	55.6515
2.270000	69.027	54.9926
2.300000	69.315	54.3089
2.330000	69.598	53.6062
2.360000	69.874	52.8903
2.400000	70.234	51.9254
2.430000	70.499	51.2017
2.470000	70.846	50.2479
2.500000	71.103	49.5484
2.540000	71.440	48.6482
2.580000	71.774	47.7939
2.620000	72.099	46.9611
2.650000	72.338	46.3463
2.690000	72.650	45.5397
2.720000	72.880	44.9449
2.760000	73.180	44.1658
2.800000	73.476	43.4028
2.850000	73.838	42.4724
2.900000	74.195	41.5686
2.950000	74.547	40.6943
3.000000	74.891	39.8641
3.040000	75.161	39.2276
3.070000	75.359	38.7627
3.110000	75.621	38.1545
3.150000	75.879	37.5546
3.200000	76.196	36.8072
3.250000	76.509	36.0520
3.300000	76.818	35.2777
3.350000	77.123	34.4799
3.400000	77.422	33.6672
3.450000	77.717	32.8493
3.500000	78.006	32.0357
3.550000	78.292	31.2361
3.600000	78.574	30.4600
3.650000	78.853	29.7171
3.700000	79.129	29.0168
3.750000	79.400	28.3576
3.820000	79.775	27.4818
3.870000	80.038	26.8740
3.950000	80.452	25.9000
4.000000	80.707	25.2720
4.060000	81.009	24.4827
4.120000	81.306	23.6645
4.180000	81.599	22.8306
4.250000	81.934	21.8532
4.310000	82.217	21.0248
4.370000	82.496	20.2173
4.440000	82.816	19.3132
4.500000	83.085	18.5641
4.550000	83.307	17.9521
4.620000	83.611	17.1056
4.680000	83.868	16.3815
4.750000	84.162	15.5285
4.820000	84.451	14.6593
4.870000	84.653	14.0324
4.940000	84.932	13.1526
5.000000	85.167	12.4024
5.080000	85.475	11.4171
5.150000	85.739	10.5774
5.220000	85.998	9.7555
5.300000	86.288	8.8329
5.380000	86.573	7.9254
5.450000	86.818	7.1415
5.520000	87.060	6.3654
5.600000	87.331	5.4908
5.700000	87.664	4.4155
5.800000	87.990	3.3571
5.900000	88.313	2.3136
6.000000	88.630	1.2893
6.080000	88.880	0.4806
6.150000	89.096	-0.2221
6.220000	89.311	-0.9228
6.300000	89.554	-1.7180
6.400000	89.855	-2.7009
6.500000	90.153	-3.6827
6.600000	90.446	-4.6754
6.700000	90.735	-5.6800
6.800000	91.020	-6.6918
6.900000	91.301	-7.7110
7.000000	91.576	-8.7382
7.100000	91.846	-9.7743
7.200000	92.110	-10.8174
7.300000	92.368	-11.8655
7.400000	92.620	-12.9200
7.500000	92.865	-13.9839
7.620000	93.152	-15.2582
7.750000	93.452	-16.6194
7.880000	93.740	-17.9690
8.000000	93.998	-19.1944
8.120000	94.250	-20.3892
8.250000	94.514	-21.6543
8.380000	94.773	-22.8860
8.500000	95.008	-23.9881
8.620000	95.240	-25.0562
8.750000	95.489	-26.1881
8.850000	95.681	-27.0458
9.000000	95.969	-28.3011
9.120000	96.199	-29.3006
9.250000	96.450	-30.3929
9.380000	96.703	-31.4862
9.500000	96.934	-32.5143
9.620000	97.163	-33.5697
9.750000	97.408	-34.7368
9.880000	97.644	-35.9340
10.000000	97.852	-37.0718
10.150000	98.101	-38.5310
10.300000	98.335	-40.0127
10.440000	98.539	-41.4229
10.600000	98.758	-43.0394
10.750000	98.951	-44.5427
10.900000	99.130	-46.0345
11.060000	99.312	-47.5769
11.200000	99.461	-48.8895
11.380000	99.645	-50.5101
11.500000	99.763	-51.5421
11.720000	99.975	-53.3495
11.800000	100.052	-53.9798
12.060000	100.302	-55.9436
12.200000	100.443	-56.9724
12.410000	100.661	-58.4872
12.500000	100.758	-59.1443
12.650000	100.926	-60.2411
12.800000	101.097	-61.3595
13.150000	101.500	-64.0997
13.200000	101.557	-64.5077
13.400000	101.780	-66.1841
13.600000	101.994	-67.9239
13.800000	102.196	-69.7275
14.000000	102.383	-71.5768
14.300000	102.637	-74.4226
14.500000	102.784	-76.3474
14.750000	102.945	-78.7562
15.000000	103.079	-81.1503
15.250000	103.186	-83.4963
15.500000	103.269	-85.7651
15.750000	103.330	-87.9367
16.000000	103.374	-89.9847
16.250000	103.405	-91.8961
16.500000	103.428	-93.6679
16.750000	103.447	-95.2999
17.000000	103.465	-96.8064
17.250000	103.484	-98.1972
17.500000	103.505	-99.4851
17.750000	103.530	-100.6815
18.000000	103.559	-101.7904
18.250000	103.593	-102.8159
18.500000	103.634	-103.7634
18.750000	103.681	-104.6425
19.000000	103.738	-105.4628
19.250000	103.804	-106.2474
19.500000	103.877	-107.0144
19.750000	103.958	-107.7784
20.000000	104.042	-108.5563
20.299999	104.143	-109.5108
20.600000	104.240	-110.4854
20.900000	104.331	-111.4697
21.200001	104.411	-112.4509
21.400000	104.460	-113.0991
21.799999	104.543	-114.3815
22.000000	104.576	-115.0160
22.400000	104.624	-116.2707
22.700001	104.641	-117.1893
23.000000	104.640	-118.0681
23.299999	104.620	-118.8800
23.600000	104.586	-119.6010
24.000000	104.522	-120.3933
24.299999	104.470	-120.8567
24.700001	104.403	-121.3232
25.000000	104.361	-121.5941
25.400000	104.321	-121.9049
25.799999	104.302	-122.2208
26.200001	104.301	-122.5929
26.500000	104.313	-122.9294
26.900000	104.342	-123.4694
27.200001	104.373	-123.9486
27.600000	104.427	-124.6902
28.000000	104.492	-125.5498
28.500000	104.586	-126.7868
29.000000	104.689	-128.1861
29.500000	104.794	-129.7074
30.000000	104.894	-131.2868
30.400000	104.970	-132.5492
30.700001	105.024	-133.4801
31.100000	105.093	-134.6878
31.500000	105.157	-135.8486
32.000000	105.229	-137.2169
32.500000	105.290	-138.4699
33.000000	105.343	-139.5971
33.500000	105.389	-140.6170
34.000000	105.428	-141.5625
34.500000	105.454	-142.4464
35.000000	105.467	-143.2540
35.500000	105.471	-143.9743
36.000000	105.470	-144.6281
36.500000	105.466	-145.2513
37.000000	105.456	-145.8571
37.500000	105.438	-146.4253
38.200001	105.412	-147.1318
38.700001	105.398	-147.6055
39.500000	105.381	-148.4014
40.000000	105.367	-148.9109
40.599998	105.347	-149.4926
41.200001	105.329	-150.0413
41.799999	105.313	-150.5887
42.500000	105.295	-151.2375
43.099998	105.277	-151.7838
43.700001	105.262	-152.3230
44.400002	105.250	-152.9741
45.000000	105.241	-153.5682
45.500000	105.234	-154.0838
46.200001	105.223	-154.8158
46.799999	105.214	-155.4347
47.500000	105.207	-156.1323
48.200001	105.204	-156.7891
48.700001	105.208	-157.2274
49.400002	105.222	-157.8180
50.000000	105.241	-158.3453
50.799999	105.259	-159.1034
51.500000	105.264	-159.7571
52.200001	105.265	-160.3583
53.000000	105.268	-161.0370
53.799999	105.267	-161.7543
54.500000	105.256	-162.3751
55.200001	105.241	-162.9633
56.000000	105.221	-163.6034
57.000000	105.196	-164.3380
58.000000	105.178	-165.0057
59.000000	105.167	-165.6604
60.000000	105.155	-166.2780
60.799999	105.147	-166.7218
61.500000	105.144	-167.0815
62.200001	105.146	-167.4302
63.000000	105.153	-167.8294
64.000000	105.169	-168.3359
65.000000	105.187	-168.8506
66.000000	105.202	-169.3593
67.000000	105.215	-169.8578
68.000000	105.225	-170.3459
69.000000	105.232	-170.8002
70.000000	105.244	-171.2503
71.000000	105.256	-171.7436
72.000000	105.264	-172.2682
73.000000	105.272	-172.8153
74.000000	105.280	-173.4046
75.000000	105.283	-174.0288
76.199997	105.284	-174.7827
77.500000	105.284	-175.5905
78.800003	105.283	-176.3802
80.000000	105.282	-177.0777
81.199997	105.280	-177.7428
82.500000	105.277	-178.4438
83.800003	105.272	-179.1104
85.000000	105.269	-179.7119
86.199997	105.266	179.6803
87.500000	105.262	179.0204
88.500000	105.259	178.5185
90.000000	105.254	177.7791
91.199997	105.253	177.1998
92.500000	105.252	176.5702
93.800003	105.251	175.9407
95.000000	105.248	175.3477
96.199997	105.239	174.7415
97.500000	105.224	174.0870
98.800003	105.203	173.4353
100.000000	105.182	172.8273
101.500000	105.152	172.0621
103.000000	105.122	171.3013
104.400002	105.098	170.6003
106.000000	105.071	169.8127
107.500000	105.044	169.1043
109.000000	105.016	168.4255
110.599998	104.986	167.7191
112.000000	104.958	167.1013
113.800003	104.925	166.2995
115.000000	104.903	165.7568
117.199997	104.862	164.7556
118.000000	104.846	164.3922
120.599998	104.779	163.2412
122.000000	104.737	162.6634
124.099998	104.674	161.8070
125.000000	104.649	161.4370
126.500000	104.611	160.8178
128.000000	104.577	160.2023
131.500000	104.507	158.8027
132.000000	104.497	158.6085
134.000000	104.458	157.8431
136.000000	104.418	157.0800
138.000000	104.374	156.3137
140.000000	104.327	155.5609
143.000000	104.252	154.4754
145.000000	104.199	153.7800
147.500000	104.131	152.9285
150.000000	104.060	152.0903
152.500000	103.990	151.2615
155.000000	103.923	150.4412
157.500000	103.854	149.6381
160.000000	103.777	148.8617
162.500000	103.690	148.1083
165.000000	103.597	147.3733
167.500000	103.503	146.6621
170.000000	103.406	145.9839
172.500000	103.307	145.3293
175.000000	103.209	144.6876
177.500000	103.116	144.0608
180.000000	103.026	143.4489
182.500000	102.938	142.8447
185.000000	102.849	142.2418
187.500000	102.756	141.6427
190.000000	102.662	141.0552
192.500000	102.566	140.4852
195.000000	102.469	139.9270
197.500000	102.372	139.3767
200.000000	102.273	138.8469
203.000000	102.155	138.2583
206.000000	102.042	137.7263
209.000000	101.931	137.2469
212.000000	101.823	136.8183
214.000000	101.753	136.5527
218.000000	101.622	136.0419
220.000000	101.562	135.7848
224.000000	101.451	135.2474
227.000000	101.372	134.8272
230.000000	101.292	134.4033
233.000000	101.211	133.9816
236.000000	101.130	133.5695
240.000000	101.020	133.0504
243.000000	100.937	132.6872
247.000000	100.823	132.2425
250.000000	100.731	131.9481
254.000000	100.600	131.6006
258.000000	100.465	131.2706
262.000000	100.331	130.9399
265.000000	100.232	130.6989
269.000000	100.100	130.4059
272.000000	100.001	130.2063
276.000000	99.870	129.9573
280.000000	99.740	129.7293
285.000000	99.577	129.4694
290.000000	99.414	129.2415
295.000000	99.254	129.0393
300.000000	99.096	128.8704
304.000000	98.970	128.7519
307.000000	98.876	128.6691
311.000000	98.754	128.5747
315.000000	98.636	128.5018
320.000000	98.497	128.4284
325.000000	98.365	128.3683
330.000000	98.234	128.3273
335.000000	98.104	128.3007
340.000000	97.975	128.2828
345.000000	97.847	128.2816
350.000000	97.718	128.3067
355.000000	97.590	128.3536
360.000000	97.464	128.4153
365.000000	97.340	128.4948
370.000000	97.217	128.5952
375.000000	97.095	128.7089
382.000000	96.928	128.8920
387.000000	96.810	129.0451
395.000000	96.623	129.3121
400.000000	96.507	129.4961
406.000000	96.371	129.7369
412.000000	96.236	130.0007
418.000000	96.104	130.2889
425.000000	95.953	130.6468
431.000000	95.827	130.9647
437.000000	95.701	131.2962
444.000000	95.557	131.7148
450.000000	95.436	132.0919
455.000000	95.337	132.4184
462.000000	95.202	132.8982
468.000000	95.090	133.3229
475.000000	94.961	133.8303
482.000000	94.835	134.3586
487.000000	94.747	134.7485
494.000000	94.627	135.3083
500.000000	94.527	135.7981
508.000000	94.398	136.4614
515.000000	94.289	137.0534
522.000000	94.183	137.6529
530.000000	94.067	138.3506
538.000000	93.953	139.0632
545.000000	93.855	139.6942
552.000000	93.760	140.3289
560.000000	93.655	141.0610
570.000000	93.527	141.9873
580.000000	93.401	142.9261
590.000000	93.280	143.8791
600.000000	93.162	144.8448
608.000000	93.071	145.6238
615.000000	92.991	146.3120
622.000000	92.913	147.0077
630.000000	92.829	147.8084
640.000000	92.733	148.8144
650.000000	92.643	149.8445
660.000000	92.555	150.8964
670.000000	92.471	151.9548
680.000000	92.390	153.0140
690.000000	92.312	154.0786
700.000000	92.238	155.1456
710.000000	92.163	156.2264
720.000000	92.093	157.3407
730.000000	92.033	158.4336
740.000000	91.978	159.4430
750.000000	91.918	160.3515
762.000000	91.836	161.3134
775.000000	91.741	162.1919
788.000000	91.656	162.9602
800.000000	91.584	163.6859
812.000000	91.508	164.4491
825.000000	91.425	165.2884
838.000000	91.348	166.1399
850.000000	91.280	166.9388
862.000000	91.217	167.7523
875.000000	91.154	168.6446
885.000000	91.110	169.3355
900.000000	91.052	170.3799
912.000000	91.013	171.2170
925.000000	90.976	172.1178
938.000000	90.947	173.0082
950.000000	90.927	173.8213
962.000000	90.912	174.6288
975.000000	90.901	175.4871
988.000000	90.894	176.3243
1000.000000	90.883	177.0775
1015.000000	90.858	177.9834
1030.000000	90.828	178.8502
1044.000000	90.804	179.6293
1060.000000	90.783	-179.5222
1075.000000	90.768	-178.7732
1090.000000	90.759	-178.0656
1106.000000	90.753	-177.3553
1120.000000	90.751	-176.7723
1138.000000	90.750	-176.0671
1150.000000	90.750	-175.6246
1172.000000	90.753	-174.8749
1180.000000	90.755	-174.6179
1206.000000	90.760	-173.8261
1220.000000	90.763	-173.4319
1241.000000	90.774	-172.8784
1250.000000	90.784	-172.6526
1265.000000	90.807	-172.2880
1280.000000	90.837	-171.9327
1315.000000	90.915	-171.1287
1320.000000	90.926	-171.0161
1340.000000	90.969	-170.5719
1360.000000	91.013	-170.1299
1380.000000	91.059	-169.6791
1400.000000	91.106	-169.2378
1430.000000	91.180	-168.5872
1450.000000	91.234	-168.1476
1475.000000	91.309	-167.5934
1500.000000	91.390	-167.0357
1525.000000	91.479	-166.4804
1550.000000	91.579	-165.9411
1575.000000	91.689	-165.4130
1600.000000	91.812	-164.8975
1625.000000	91.951	-164.4117
1650.000000	92.103	-163.9726
1675.000000	92.267	-163.5939
1700.000000	92.440	-163.2869
1725.000000	92.624	-163.0627
1750.000000	92.816	-162.9225
1775.000000	93.016	-162.8650
1800.000000	93.221	-162.9039
1825.000000	93.430	-163.0468
1850.000000	93.640	-163.2986
1875.000000	93.850	-163.6572
1900.000000	94.058	-164.1142
1925.000000	94.264	-164.6667
1950.000000	94.465	-165.3084
1975.000000	94.660	-166.0304
2000.000000	94.851	-166.8274
2030.000000	95.072	-167.8694
2060.000000	95.282	-168.9997
2090.000000	95.481	-170.2042
2120.000000	95.668	-171.4655
2140.000000	95.788	-172.3314
2180.000000	96.015	-174.1191
2200.000000	96.120	-175.0444
2240.000000	96.318	-176.9445
2270.000000	96.456	-178.3932
2300.000000	96.587	-179.8470
2330.000000	96.710	178.6941
2360.000000	96.825	177.2260
2400.000000	96.966	175.2732
2430.000000	97.068	173.8326
2470.000000	97.203	171.9493
2500.000000	97.308	170.5415
2540.000000	97.457	168.6166
2580.000000	97.613	166.5509
2620.000000	97.760	164.2925
2650.000000	97.854	162.4956
2690.000000	97.955	160.0325
2720.000000	98.013	158.1636
2760.000000	98.069	155.6614
2800.000000	98.106	153.1751
2850.000000	98.139	150.1263
2900.000000	98.155	147.1511
2950.000000	98.161	144.2484
3000.000000	98.158	141.3859
3040.000000	98.148	139.1115
3070.000000	98.138	137.4265
3110.000000	98.125	135.2168
3150.000000	98.113	133.0430
3200.000000	98.103	130.3644
3250.000000	98.096	127.7148
3300.000000	98.087	125.0893
3350.000000	98.076	122.4904
3400.000000	98.063	119.9262
3450.000000	98.048	117.3901
3500.000000	98.030	114.8715
3550.000000	98.010	112.3636
3600.000000	97.988	109.8548
3650.000000	97.961	107.3215
3700.000000	97.925	104.7538
3750.000000	97.875	102.1623
3820.000000	97.758	98.5750
3870.000000	97.623	96.2041
3950.000000	97.333	93.4567
4000.000000	97.199	92.6694
4060.000000	97.204	92.0821
4120.000000	97.358	90.9245
4180.000000	97.549	88.9276
4250.000000	97.738	85.9127
4310.000000	97.858	83.0469
4370.000000	97.953	80.1210
4440.000000	98.040	76.7943
4500.000000	98.094	74.3629
4550.000000	98.151	73.1324
4620.000000	98.271	72.8274
4680.000000	98.367	73.2706
4750.000000	98.465	73.9267
4820.000000	98.561	74.6078
4870.000000	98.632	75.1191
4940.000000	98.736	75.8726
5000.000000	98.835	76.5339
5080.000000	98.980	77.3845
5150.000000	99.118	78.1052
5220.000000	99.267	78.8347
5300.000000	99.446	79.6527
5380.000000	99.634	80.4049
5450.000000	99.804	80.9929
5520.000000	99.977	81.5103
5600.000000	100.176	82.0110
5700.000000	100.425	82.5233
5800.000000	100.674	82.8893
5900.000000	100.922	83.0762
6000.000000	101.163	83.0625
6080.000000	101.347	82.9217
6150.000000	101.495	82.7083
6220.000000	101.626	82.4090
6300.000000	101.747	81.9748
6400.000000	101.851	81.3569
6500.000000	101.908	80.7013
6600.000000	101.919	80.0068
6700.000000	101.894	79.3967
6800.000000	101.842	78.9589
6900.000000	101.769	78.6759
7000.000000	101.684	78.5245
7100.000000	101.595	78.4970
7200.000000	101.512	78.5349
7300.000000	101.440	78.5403
7400.000000	101.375	78.4280
7500.000000	101.308	78.1482
7620.000000	101.216	77.5272
7750.000000	101.079	76.3997
7880.000000	100.866	74.7242
8000.000000	100.559	72.7121
8120.000000	100.110	70.5353
8250.000000	99.443	68.4686
8380.000000	98.596	67.0545
8500.000000	97.681	66.5490
8620.000000	96.683	67.0001
8750.000000	95.551	68.5824
8850.000000	94.665	70.5210
9000.000000	93.341	74.4807
9120.000000	92.301	78.4709
9250.000000	91.206	83.5329
9380.000000	90.157	89.3041
9500.000000	89.236	95.1681
9620.000000	88.362	101.4215
9750.000000	87.469	108.5424
9880.000000	86.636	116.0441
10000.000000	85.920	123.2842
10150.000000	85.089	132.6568
10300.000000	84.319	142.3315
10440.000000	83.652	151.6232
10600.000000	82.953	162.5396
10750.000000	82.373	173.1390
10900.000000	81.873	-176.0720
11060.000000	81.409	-164.6309
11200.000000	81.041	-154.6660
11380.000000	80.614	-141.6712
11500.000000	80.363	-132.8678
11720.000000	79.984	-116.5954
11800.000000	79.873	-110.6200
12060.000000	79.603	-91.0284
12200.000000	79.513	-80.4604
12410.000000	79.450	-64.4985
12500.000000	79.450	-57.5809
12650.000000	79.490	-45.9288
12800.000000	79.587	-34.1258
13150.000000	80.078	-6.3427
13200.000000	80.184	-2.3899
13400.000000	80.710	13.3086
13600.000000	81.413	28.7497
13800.000000	82.308	43.7604
14000.000000	83.423	58.1122
14300.000000	85.689	77.6792
14500.000000	87.750	87.4205
14750.000000	90.675	88.0034
15000.000000	92.883	68.8375
15250.000000	92.987	37.9547
15500.000000	90.880	14.3696
15750.000000	87.837	4.2847
16000.000000	85.095	2.1496
16250.000000	83.087	3.5024
16500.000000	81.692	6.5007
16750.000000	80.696	10.4981
17000.000000	79.987	15.0018
17250.000000	79.503	19.5147
17500.000000	79.205	23.8731
17750.000000	79.064	27.7608
18000.000000	79.068	30.8286
18250.000000	79.195	32.7671
18500.000000	79.383	33.1710
18750.000000	79.535	31.5573
19000.000000	79.503	27.4629
19250.000000	79.107	21.0753
19500.000000	78.201	13.5999
19750.000000	76.844	7.0320
