* Measurement data measured by REW V5.20.13
* Source: ASIO ASIO4ALL v2, EPOS GSX 300 1. Timing signal peak level -10.2 dBFS, measurement signal peak level -3.2 dBFS
* Format: 256k Log Swept Sine, 1 sweep using an acoustic timing reference
* Dated: 2023. 10. 26 ¿ÀÈÄ 9:48:21
* REW Settings:
*  C-weighting compensation: Off
*  Target level: 75.0 dB
* Note: ; Delay 0.0638 ms (22 mm, 0.86 in) using estimated IR delay relative to Acoustic reference played from refR.wav with no timing offset Clock adjustment: -259.0 ppm
* Measurement: EQ Bass R
* Smoothing: 1/24 octave
* Frequency Step: 1/48 octave
* Start Frequency: 1.000 Hz
*
* Freq(Hz)	SPL(dB)	Phase(degrees)
1.000000	61.556	35.9662
1.015000	61.871	37.9770
1.030000	62.188	39.8958
1.044000	62.483	41.5925
1.060000	62.819	43.4070
1.075000	63.131	44.9745
1.090000	63.438	46.3999
1.106000	63.763	47.7606
1.120000	64.057	48.8715
1.138000	64.451	50.2101
1.150000	64.723	51.0474
1.172000	65.238	52.4714
1.180000	65.430	52.9543
1.206000	66.070	54.3987
1.220000	66.421	55.0994
1.241000	66.957	56.0528
1.250000	67.188	56.4264
1.265000	67.575	57.0036
1.280000	67.964	57.5253
1.315000	68.869	58.5359
1.320000	68.997	58.6574
1.340000	69.506	59.0888
1.360000	70.007	59.4354
1.380000	70.497	59.7007
1.400000	70.972	59.8885
1.430000	71.652	60.0328
1.450000	72.079	60.0428
1.475000	72.581	59.9479
1.500000	73.059	59.6021
1.525000	73.518	59.0032
1.550000	73.960	58.1859
1.575000	74.385	57.1853
1.600000	74.796	56.0362
1.625000	75.194	54.7737
1.650000	75.580	53.4325
1.675000	75.955	52.0476
1.700000	76.322	50.6539
1.725000	76.681	49.2864
1.750000	77.034	47.9799
1.775000	77.383	46.7694
1.800000	77.728	45.6898
1.825000	78.072	44.7760
1.850000	78.412	44.0258
1.875000	78.743	43.3621
1.900000	79.066	42.7709
1.925000	79.380	42.2414
1.950000	79.687	41.7627
1.975000	79.987	41.3240
2.000000	80.280	40.9146
2.030000	80.624	40.4466
2.060000	80.961	39.9865
2.090000	81.291	39.5156
2.120000	81.615	39.0153
2.140000	81.829	38.6561
2.180000	82.251	37.8515
2.200000	82.461	37.3952
2.240000	82.871	36.4032
2.270000	83.169	35.6102
2.300000	83.461	34.7840
2.330000	83.747	33.9324
2.360000	84.026	33.0634
2.400000	84.391	31.8912
2.430000	84.659	31.0122
2.470000	85.009	29.8552
2.500000	85.268	29.0091
2.540000	85.609	27.9246
2.580000	85.945	26.9027
2.620000	86.273	25.9153
2.650000	86.514	25.1910
2.690000	86.828	24.2451
2.720000	87.059	23.5494
2.760000	87.362	22.6386
2.800000	87.659	21.7449
2.850000	88.022	20.6488
2.900000	88.379	19.5722
2.950000	88.731	18.5141
3.000000	89.074	17.4961
3.040000	89.342	16.7078
3.070000	89.540	16.1276
3.110000	89.799	15.3641
3.150000	90.054	14.6063
3.200000	90.367	13.6579
3.250000	90.675	12.6971
3.300000	90.978	11.7118
3.350000	91.275	10.6935
3.400000	91.565	9.6508
3.450000	91.850	8.5971
3.500000	92.129	7.5457
3.550000	92.402	6.5101
3.600000	92.671	5.5036
3.650000	92.936	4.5396
3.700000	93.196	3.6292
3.750000	93.451	2.7664
3.820000	93.799	1.6147
3.870000	94.043	0.8150
3.950000	94.424	-0.4598
4.000000	94.657	-1.2734
4.060000	94.932	-2.2852
4.120000	95.201	-3.3285
4.180000	95.463	-4.3863
4.250000	95.763	-5.6171
4.310000	96.014	-6.6505
4.370000	96.262	-7.6467
4.440000	96.545	-8.7457
4.500000	96.783	-9.6426
4.550000	96.977	-10.3669
4.620000	97.244	-11.3577
4.680000	97.469	-12.1968
4.750000	97.727	-13.1788
4.820000	97.982	-14.1713
4.870000	98.160	-14.8795
4.940000	98.406	-15.8653
5.000000	98.614	-16.7004
5.080000	98.887	-17.7929
5.150000	99.124	-18.7222
5.220000	99.357	-19.6239
5.300000	99.619	-20.6286
5.380000	99.877	-21.6164
5.450000	100.101	-22.4753
5.520000	100.322	-23.3356
5.600000	100.572	-24.3114
5.700000	100.880	-25.5203
5.800000	101.182	-26.7241
5.900000	101.480	-27.9293
6.000000	101.773	-29.1330
6.080000	102.003	-30.0943
6.150000	102.202	-30.9346
6.220000	102.398	-31.7742
6.300000	102.617	-32.7330
6.400000	102.887	-33.9299
6.500000	103.150	-35.1255
6.600000	103.406	-36.3203
6.700000	103.656	-37.5195
6.800000	103.899	-38.7191
6.900000	104.135	-39.9088
7.000000	104.365	-41.0799
7.100000	104.588	-42.2369
7.200000	104.804	-43.3799
7.300000	105.016	-44.5067
7.400000	105.222	-45.6165
7.500000	105.423	-46.7107
7.620000	105.658	-48.0008
7.750000	105.908	-49.3660
7.880000	106.151	-50.6952
8.000000	106.370	-51.8998
8.120000	106.587	-53.0903
8.250000	106.818	-54.3584
8.380000	107.045	-55.6141
8.500000	107.252	-56.7698
8.620000	107.455	-57.9180
8.750000	107.671	-59.1597
8.850000	107.833	-60.1175
9.000000	108.072	-61.5556
9.120000	108.258	-62.7060
9.250000	108.454	-63.9533
9.380000	108.645	-65.2016
9.500000	108.815	-66.3478
9.620000	108.977	-67.4855
9.750000	109.146	-68.7108
9.880000	109.306	-69.9221
10.000000	109.444	-71.0253
10.150000	109.606	-72.3866
10.300000	109.759	-73.7262
10.440000	109.893	-74.9546
10.600000	110.041	-76.3414
10.750000	110.177	-77.6290
10.900000	110.309	-78.9053
11.060000	110.446	-80.2674
11.200000	110.565	-81.4580
11.380000	110.712	-82.9951
11.500000	110.807	-84.0268
11.720000	110.972	-85.9258
11.800000	111.028	-86.6186
12.060000	111.201	-88.8728
12.200000	111.287	-90.0779
12.410000	111.410	-91.8708
12.500000	111.461	-92.6269
12.650000	111.545	-93.8731
12.800000	111.626	-95.0978
13.150000	111.809	-97.8597
13.200000	111.834	-98.2451
13.400000	111.932	-99.7611
13.600000	112.028	-101.2525
13.800000	112.121	-102.7237
14.000000	112.212	-104.1890
14.300000	112.342	-106.3829
14.500000	112.424	-107.8500
14.750000	112.517	-109.6818
15.000000	112.599	-111.5061
15.250000	112.669	-113.3057
15.500000	112.729	-115.0646
15.750000	112.778	-116.7722
16.000000	112.820	-118.4160
16.250000	112.856	-119.9923
16.500000	112.889	-121.5012
16.750000	112.919	-122.9449
17.000000	112.948	-124.3333
17.250000	112.976	-125.6739
17.500000	113.004	-126.9763
17.750000	113.031	-128.2525
18.000000	113.056	-129.5071
18.250000	113.078	-130.7451
18.500000	113.096	-131.9652
18.750000	113.108	-133.1611
19.000000	113.113	-134.3269
19.250000	113.113	-135.4496
19.500000	113.107	-136.5212
19.750000	113.097	-137.5355
20.000000	113.084	-138.4871
20.299999	113.068	-139.5489
20.600000	113.053	-140.5284
20.900000	113.041	-141.4352
21.200001	113.034	-142.2811
21.400000	113.032	-142.8184
21.799999	113.038	-143.8456
22.000000	113.045	-144.3457
22.400000	113.069	-145.3412
22.700001	113.094	-146.1008
23.000000	113.121	-146.8838
23.299999	113.150	-147.6917
23.600000	113.177	-148.5190
24.000000	113.210	-149.6370
24.299999	113.231	-150.4722
24.700001	113.257	-151.5669
25.000000	113.274	-152.3685
25.400000	113.297	-153.4094
25.799999	113.321	-154.4189
26.200001	113.345	-155.3981
26.500000	113.365	-156.1146
26.900000	113.395	-157.0513
27.200001	113.419	-157.7453
27.600000	113.454	-158.6669
28.000000	113.491	-159.5905
28.500000	113.538	-160.7541
29.000000	113.585	-161.9381
29.500000	113.630	-163.1555
30.000000	113.668	-164.4093
30.400000	113.692	-165.4273
30.700001	113.705	-166.1907
31.100000	113.718	-167.2013
31.500000	113.728	-168.2049
32.000000	113.735	-169.4598
32.500000	113.735	-170.7175
33.000000	113.727	-171.9579
33.500000	113.712	-173.1573
34.000000	113.697	-174.3166
34.500000	113.682	-175.4596
35.000000	113.665	-176.5996
35.500000	113.643	-177.7189
36.000000	113.618	-178.7884
36.500000	113.593	-179.8006
37.000000	113.572	179.2245
37.500000	113.552	178.2654
38.200001	113.521	176.9481
38.700001	113.495	176.0435
39.500000	113.448	174.6790
40.000000	113.418	173.8722
40.599998	113.382	172.9373
41.200001	113.347	172.0173
41.799999	113.311	171.0901
42.500000	113.264	169.9905
43.099998	113.219	169.0433
43.700001	113.170	168.1053
44.400002	113.111	167.0362
45.000000	113.063	166.1456
45.500000	113.026	165.4111
46.200001	112.980	164.3694
46.799999	112.942	163.4606
47.500000	112.896	162.4128
48.200001	112.851	161.3998
48.700001	112.821	160.6886
49.400002	112.779	159.6918
50.000000	112.738	158.8374
50.799999	112.676	157.7159
51.500000	112.616	156.7582
52.200001	112.554	155.8159
53.000000	112.481	154.7465
53.799999	112.407	153.6797
54.500000	112.341	152.7456
55.200001	112.273	151.8102
56.000000	112.192	150.7484
57.000000	112.087	149.4286
58.000000	111.974	148.0971
59.000000	111.849	146.8168
60.000000	111.724	145.6035
60.799999	111.628	144.6181
61.500000	111.542	143.7362
62.200001	111.455	142.8516
63.000000	111.356	141.8427
64.000000	111.234	140.5732
65.000000	111.106	139.3043
66.000000	110.967	138.0862
67.000000	110.819	136.9370
68.000000	110.665	135.8250
69.000000	110.501	134.7368
70.000000	110.327	133.6907
71.000000	110.147	132.6900
72.000000	109.966	131.7175
73.000000	109.782	130.7729
74.000000	109.595	129.8696
75.000000	109.408	129.0117
76.199997	109.179	128.0269
77.500000	108.921	127.0210
78.800003	108.652	126.1097
80.000000	108.396	125.3606
81.199997	108.136	124.6920
82.500000	107.850	124.0629
83.800003	107.564	123.5384
85.000000	107.299	123.1411
86.199997	107.036	122.8205
87.500000	106.755	122.5330
88.500000	106.541	122.3510
90.000000	106.229	122.1454
91.199997	105.990	122.0275
92.500000	105.739	121.9605
93.800003	105.496	121.9799
95.000000	105.279	122.0760
96.199997	105.068	122.2316
97.500000	104.843	122.4527
98.800003	104.620	122.7218
100.000000	104.419	123.0057
101.500000	104.176	123.3884
103.000000	103.943	123.7880
104.400002	103.735	124.1967
106.000000	103.513	124.7019
107.500000	103.320	125.1964
109.000000	103.138	125.7115
110.599998	102.955	126.2758
112.000000	102.802	126.7840
113.800003	102.615	127.4637
115.000000	102.498	127.9206
117.199997	102.291	128.7474
118.000000	102.218	129.0490
120.599998	102.003	130.0266
122.000000	101.900	130.5071
124.099998	101.755	131.1799
125.000000	101.696	131.4655
126.500000	101.606	131.9486
128.000000	101.524	132.4247
131.500000	101.350	133.4567
132.000000	101.326	133.5980
134.000000	101.232	134.1557
136.000000	101.146	134.6963
138.000000	101.070	135.2155
140.000000	101.000	135.6953
143.000000	100.897	136.3665
145.000000	100.829	136.7967
147.500000	100.748	137.2885
150.000000	100.673	137.7308
152.500000	100.599	138.1409
155.000000	100.526	138.5320
157.500000	100.452	138.8779
160.000000	100.373	139.2085
162.500000	100.290	139.5323
165.000000	100.206	139.8417
167.500000	100.125	140.1340
170.000000	100.045	140.4044
172.500000	99.968	140.6662
175.000000	99.892	140.9233
177.500000	99.818	141.1846
180.000000	99.745	141.4380
182.500000	99.672	141.6665
185.000000	99.599	141.8671
187.500000	99.528	142.0427
190.000000	99.457	142.2013
192.500000	99.384	142.3585
195.000000	99.309	142.5176
197.500000	99.233	142.6783
200.000000	99.159	142.8422
203.000000	99.074	143.0532
206.000000	98.991	143.2984
209.000000	98.910	143.5865
212.000000	98.835	143.9005
214.000000	98.789	144.1125
218.000000	98.709	144.5068
220.000000	98.676	144.6785
224.000000	98.616	144.9570
227.000000	98.572	145.1063
230.000000	98.527	145.2127
233.000000	98.479	145.2918
236.000000	98.426	145.3543
240.000000	98.352	145.4285
243.000000	98.295	145.4748
247.000000	98.215	145.5224
250.000000	98.151	145.5656
254.000000	98.062	145.6441
258.000000	97.971	145.7293
262.000000	97.879	145.8080
265.000000	97.810	145.8655
269.000000	97.719	145.9411
272.000000	97.652	145.9949
276.000000	97.562	146.0701
280.000000	97.471	146.1547
285.000000	97.359	146.2562
290.000000	97.248	146.3567
295.000000	97.136	146.4750
300.000000	97.025	146.6079
304.000000	96.938	146.7121
307.000000	96.873	146.7922
311.000000	96.788	146.9017
315.000000	96.708	147.0115
320.000000	96.617	147.1467
325.000000	96.531	147.2753
330.000000	96.446	147.4041
335.000000	96.362	147.5412
340.000000	96.277	147.6781
345.000000	96.192	147.8145
350.000000	96.108	147.9579
355.000000	96.024	148.1117
360.000000	95.942	148.2736
365.000000	95.862	148.4443
370.000000	95.782	148.6217
375.000000	95.703	148.8031
382.000000	95.595	149.0659
387.000000	95.520	149.2542
395.000000	95.402	149.5693
400.000000	95.330	149.7731
406.000000	95.246	150.0238
412.000000	95.163	150.2819
418.000000	95.080	150.5521
425.000000	94.988	150.8652
431.000000	94.911	151.1523
437.000000	94.840	151.4626
444.000000	94.764	151.7881
450.000000	94.696	152.0326
455.000000	94.634	152.2543
462.000000	94.542	152.6587
468.000000	94.468	153.1202
475.000000	94.395	153.7965
482.000000	94.342	154.6108
487.000000	94.313	155.2801
494.000000	94.279	156.3502
500.000000	94.249	157.3585
508.000000	94.204	158.7350
515.000000	94.164	159.8958
522.000000	94.130	161.0329
530.000000	94.096	162.3513
538.000000	94.066	163.6712
545.000000	94.043	164.8259
552.000000	94.023	165.9834
560.000000	94.003	167.3033
570.000000	93.983	168.9430
580.000000	93.969	170.5730
590.000000	93.959	172.1977
600.000000	93.952	173.8179
608.000000	93.949	175.1040
615.000000	93.949	176.2228
622.000000	93.951	177.3397
630.000000	93.958	178.6157
640.000000	93.973	-179.7932
650.000000	93.993	-178.2100
660.000000	94.018	-176.6307
670.000000	94.045	-175.0575
680.000000	94.076	-173.4927
690.000000	94.108	-171.9387
700.000000	94.140	-170.3995
710.000000	94.174	-168.8705
720.000000	94.208	-167.3492
730.000000	94.242	-165.8351
740.000000	94.277	-164.3246
750.000000	94.312	-162.8147
762.000000	94.354	-161.0045
775.000000	94.401	-159.0397
788.000000	94.448	-157.0656
800.000000	94.488	-155.2399
812.000000	94.522	-153.4051
825.000000	94.556	-151.3987
838.000000	94.592	-149.3760
850.000000	94.630	-147.4921
862.000000	94.670	-145.5934
875.000000	94.715	-143.5294
885.000000	94.753	-141.9397
900.000000	94.815	-139.5498
912.000000	94.868	-137.6322
925.000000	94.931	-135.5535
938.000000	94.997	-133.4791
950.000000	95.063	-131.5674
962.000000	95.132	-129.6605
975.000000	95.211	-127.6037
988.000000	95.290	-125.5572
1000.000000	95.356	-123.6778
1015.000000	95.424	-121.3405
1030.000000	95.487	-119.0187
1044.000000	95.548	-116.8639
1060.000000	95.622	-114.4170
1075.000000	95.692	-112.1481
1090.000000	95.763	-109.9098
1106.000000	95.842	-107.5493
1120.000000	95.911	-105.5058
1138.000000	96.000	-102.9127
1150.000000	96.059	-101.2024
1172.000000	96.165	-98.0966
1180.000000	96.204	-96.9749
1206.000000	96.324	-93.3476
1220.000000	96.388	-91.4025
1241.000000	96.484	-88.4914
1250.000000	96.530	-87.2458
1265.000000	96.613	-85.1699
1280.000000	96.701	-83.0938
1315.000000	96.905	-78.2223
1320.000000	96.933	-77.5211
1340.000000	97.047	-74.7034
1360.000000	97.159	-71.8601
1380.000000	97.269	-68.9923
1400.000000	97.378	-66.1010
1430.000000	97.544	-61.7065
1450.000000	97.655	-58.7407
1475.000000	97.797	-54.9759
1500.000000	97.970	-51.1971
1525.000000	98.167	-47.9795
1550.000000	98.319	-45.6929
1575.000000	98.446	-44.2686
1600.000000	98.613	-43.2406
1625.000000	98.806	-42.2277
1650.000000	99.010	-41.2541
1675.000000	99.222	-40.3407
1700.000000	99.444	-39.4966
1725.000000	99.674	-38.7281
1750.000000	99.911	-38.0526
1775.000000	100.152	-37.4812
1800.000000	100.397	-37.0128
1825.000000	100.646	-36.6452
1850.000000	100.895	-36.3856
1875.000000	101.141	-36.2381
1900.000000	101.384	-36.2010
1925.000000	101.623	-36.2657
1950.000000	101.856	-36.4207
1975.000000	102.082	-36.6586
2000.000000	102.301	-36.9695
2030.000000	102.556	-37.4321
2060.000000	102.798	-37.9857
2090.000000	103.027	-38.6159
2120.000000	103.245	-39.3136
2140.000000	103.382	-39.8085
2180.000000	103.641	-40.8546
2200.000000	103.763	-41.3969
2240.000000	103.996	-42.5282
2270.000000	104.156	-43.4157
2300.000000	104.308	-44.3274
2330.000000	104.451	-45.2475
2360.000000	104.586	-46.1651
2400.000000	104.754	-47.3866
2430.000000	104.875	-48.2913
2470.000000	105.038	-49.4729
2500.000000	105.166	-50.3620
2540.000000	105.345	-51.6316
2580.000000	105.523	-53.0914
2620.000000	105.683	-54.7514
2650.000000	105.784	-56.0785
2690.000000	105.892	-57.8777
2720.000000	105.957	-59.2236
2760.000000	106.024	-60.9982
2800.000000	106.075	-62.7422
2850.000000	106.120	-64.8681
2900.000000	106.151	-66.9359
2950.000000	106.167	-68.9613
3000.000000	106.171	-70.9410
3040.000000	106.169	-72.4777
3070.000000	106.165	-73.6109
3110.000000	106.156	-75.1105
3150.000000	106.146	-76.5943
3200.000000	106.139	-78.4112
3250.000000	106.133	-80.1952
3300.000000	106.124	-81.9632
3350.000000	106.112	-83.7197
3400.000000	106.097	-85.4673
3450.000000	106.079	-87.2033
3500.000000	106.058	-88.9249
3550.000000	106.033	-90.6522
3600.000000	106.002	-92.4040
3650.000000	105.965	-94.1788
3700.000000	105.918	-95.9794
3750.000000	105.852	-97.8193
3820.000000	105.700	-100.3689
3870.000000	105.536	-101.9456
3950.000000	105.222	-103.2231
4000.000000	105.110	-103.1334
4060.000000	105.147	-102.9739
4120.000000	105.302	-103.6056
4180.000000	105.462	-105.0560
4250.000000	105.602	-107.2931
4310.000000	105.684	-109.3797
4370.000000	105.742	-111.5178
4440.000000	105.795	-114.0309
4500.000000	105.837	-116.1935
4550.000000	105.871	-118.0289
4620.000000	105.913	-120.6768
4680.000000	105.947	-122.9946
4750.000000	105.984	-125.7333
4820.000000	106.019	-128.5255
4870.000000	106.044	-130.5497
4940.000000	106.082	-133.4274
5000.000000	106.118	-135.9472
5080.000000	106.177	-139.3691
5150.000000	106.235	-142.4435
5220.000000	106.297	-145.6179
5300.000000	106.371	-149.3456
5380.000000	106.448	-153.1869
5450.000000	106.513	-156.6548
5520.000000	106.577	-160.2273
5600.000000	106.643	-164.4664
5700.000000	106.716	-169.9675
5800.000000	106.777	-175.6488
5900.000000	106.826	178.4788
6000.000000	106.854	172.3416
6080.000000	106.856	167.1774
6150.000000	106.837	162.4748
6220.000000	106.798	157.6473
6300.000000	106.719	152.0153
6400.000000	106.564	144.9244
6500.000000	106.359	137.9483
6600.000000	106.109	131.1244
6700.000000	105.827	124.5000
6800.000000	105.529	118.1198
6900.000000	105.230	112.0251
7000.000000	104.947	106.2058
7100.000000	104.695	100.6051
7200.000000	104.493	95.1389
7300.000000	104.351	89.6516
7400.000000	104.267	83.9996
7500.000000	104.235	78.0556
7620.000000	104.247	70.3614
7750.000000	104.289	61.1204
7880.000000	104.304	50.7715
8000.000000	104.237	40.3132
8120.000000	104.047	29.2484
8250.000000	103.669	16.9490
8380.000000	103.115	4.7841
8500.000000	102.473	-5.9716
8620.000000	101.740	-16.1236
8750.000000	100.879	-26.4144
8850.000000	100.192	-33.8409
9000.000000	99.140	-44.1837
9120.000000	98.279	-51.2729
9250.000000	97.336	-55.4296
9380.000000	96.490	-53.4252
9500.000000	95.769	-47.6086
9620.000000	95.058	-40.4082
9750.000000	94.319	-32.0297
9880.000000	93.625	-23.2671
10000.000000	93.024	-14.8929
10150.000000	92.326	-4.0435
10300.000000	91.678	7.2202
10440.000000	91.117	18.1019
10600.000000	90.530	30.8940
10750.000000	90.044	43.1790
10900.000000	89.632	55.7165
11060.000000	89.253	69.1827
11200.000000	88.951	81.0070
11380.000000	88.601	96.4078
11500.000000	88.398	106.8333
11720.000000	88.103	126.2604
11800.000000	88.020	133.4195
12060.000000	87.834	156.9379
12200.000000	87.784	169.7465
12410.000000	87.773	-170.7620
12500.000000	87.792	-162.2927
12650.000000	87.862	-148.0234
12800.000000	87.988	-133.6049
13150.000000	88.544	-99.6329
13200.000000	88.658	-94.7633
13400.000000	89.216	-75.2737
13600.000000	89.948	-55.8904
13800.000000	90.863	-36.8916
14000.000000	91.994	-18.4055
14300.000000	94.263	7.7205
14500.000000	96.302	22.8479
14750.000000	99.259	35.4012
15000.000000	101.542	34.8747
15250.000000	101.725	24.6974
15500.000000	99.682	21.9721
15750.000000	96.663	33.0987
16000.000000	93.922	52.7028
16250.000000	91.912	76.1915
16500.000000	90.524	101.6090
16750.000000	89.535	128.0846
17000.000000	88.826	155.1706
17250.000000	88.345	-177.3892
17500.000000	88.049	-149.9477
17750.000000	87.912	-122.8439
18000.000000	87.923	-96.1749
18250.000000	88.056	-70.2163
18500.000000	88.253	-45.4370
18750.000000	88.411	-22.4370
19000.000000	88.390	-1.6484
19250.000000	88.017	17.1065
19500.000000	87.144	34.6136
19750.000000	85.827	50.6016
