* Measurement data measured by REW V5.20.13
* Source: ASIO ASIO4ALL v2, EPOS GSX 300 1. Timing signal peak level -4.8 dBFS, measurement signal peak level -4.8 dBFS
* Format: 256k Log Swept Sine, 1 sweep using an acoustic timing reference
* Dated: 2023. 10. 26 ¿ÀÈÄ 9:49:26
* REW Settings:
*  C-weighting compensation: Off
*  Target level: 75.0 dB
* Note: ; Delay 0.0317 ms (11 mm, 0.43 in) using estimated IR delay relative to Acoustic reference played from refR.wav with no timing offset Clock adjustment: -127.0 ppm
* Measurement: EQ Treble R
* Smoothing: 1/24 octave
* Frequency Step: 1/48 octave
* Start Frequency: 1.000 Hz
*
* Freq(Hz)	SPL(dB)	Phase(degrees)
1.000000	59.669	45.5718
1.015000	59.925	46.8405
1.030000	60.180	48.0413
1.044000	60.418	49.0938
1.060000	60.687	50.2079
1.075000	60.937	51.1584
1.090000	61.182	52.0099
1.106000	61.440	52.8051
1.120000	61.671	53.4265
1.138000	61.976	54.1349
1.150000	62.184	54.5530
1.172000	62.575	55.2140
1.180000	62.719	55.4222
1.206000	63.196	55.9884
1.220000	63.456	56.2279
1.241000	63.851	56.5089
1.250000	64.021	56.6026
1.265000	64.305	56.7258
1.280000	64.590	56.8109
1.315000	65.254	56.8801
1.320000	65.348	56.8770
1.340000	65.722	56.8375
1.360000	66.092	56.7605
1.380000	66.456	56.6539
1.400000	66.812	56.5260
1.430000	67.329	56.3117
1.450000	67.659	56.1656
1.475000	68.055	55.9828
1.500000	68.438	55.7155
1.525000	68.813	55.3521
1.550000	69.178	54.9037
1.575000	69.535	54.3817
1.600000	69.883	53.7974
1.625000	70.225	53.1620
1.650000	70.560	52.4869
1.675000	70.888	51.7833
1.700000	71.210	51.0626
1.725000	71.527	50.3360
1.750000	71.840	49.6149
1.775000	72.148	48.9105
1.800000	72.453	48.2341
1.825000	72.754	47.5970
1.850000	73.051	46.9938
1.875000	73.342	46.3905
1.900000	73.627	45.7853
1.925000	73.906	45.1784
1.950000	74.179	44.5696
1.975000	74.448	43.9590
2.000000	74.711	43.3466
2.030000	75.022	42.6094
2.060000	75.326	41.8696
2.090000	75.626	41.1272
2.120000	75.920	40.3822
2.140000	76.114	39.8841
2.180000	76.498	38.8845
2.200000	76.688	38.3829
2.240000	77.061	37.3675
2.270000	77.333	36.5949
2.300000	77.600	35.8157
2.330000	77.862	35.0323
2.360000	78.118	34.2472
2.400000	78.454	33.2020
2.430000	78.701	32.4225
2.470000	79.026	31.3939
2.500000	79.265	30.6336
2.540000	79.581	29.6394
2.580000	79.892	28.6718
2.620000	80.197	27.7230
2.650000	80.421	27.0215
2.690000	80.714	26.0988
2.720000	80.930	25.4155
2.760000	81.213	24.5150
2.800000	81.491	23.6255
2.850000	81.833	22.5272
2.900000	82.170	21.4415
2.950000	82.501	20.3667
3.000000	82.826	19.3075
3.040000	83.081	18.4717
3.070000	83.269	17.8512
3.110000	83.516	17.0318
3.150000	83.760	16.2211
3.200000	84.060	15.2190
3.250000	84.356	14.2284
3.300000	84.648	13.2484
3.350000	84.936	12.2807
3.400000	85.219	11.3264
3.450000	85.496	10.3847
3.500000	85.770	9.4544
3.550000	86.039	8.5346
3.600000	86.305	7.6242
3.650000	86.567	6.7223
3.700000	86.826	5.8298
3.750000	87.081	4.9501
3.820000	87.431	3.7364
3.870000	87.677	2.8797
3.950000	88.064	1.5214
4.000000	88.301	0.6772
4.060000	88.581	-0.3335
4.120000	88.857	-1.3392
4.180000	89.127	-2.3383
4.250000	89.437	-3.4941
4.310000	89.697	-4.4753
4.370000	89.953	-5.4464
4.440000	90.246	-6.5658
4.500000	90.492	-7.5149
4.550000	90.693	-8.2986
4.620000	90.969	-9.3850
4.680000	91.202	-10.3064
4.750000	91.468	-11.3702
4.820000	91.729	-12.4232
4.870000	91.911	-13.1693
4.940000	92.161	-14.2035
5.000000	92.371	-15.0788
5.080000	92.646	-16.2269
5.150000	92.882	-17.2116
5.220000	93.113	-18.1787
5.300000	93.370	-19.2638
5.380000	93.622	-20.3278
5.450000	93.839	-21.2417
5.520000	94.052	-22.1399
5.600000	94.291	-23.1452
5.700000	94.583	-24.3725
5.800000	94.869	-25.5708
5.900000	95.151	-26.7435
6.000000	95.427	-27.8848
6.080000	95.644	-28.7791
6.150000	95.831	-29.5514
6.220000	96.017	-30.3174
6.300000	96.227	-31.1831
6.400000	96.486	-32.2470
6.500000	96.741	-33.2982
6.600000	96.992	-34.3450
6.700000	97.240	-35.3861
6.800000	97.484	-36.4197
6.900000	97.723	-37.4496
7.000000	97.958	-38.4794
7.100000	98.188	-39.5078
7.200000	98.414	-40.5339
7.300000	98.635	-41.5572
7.400000	98.851	-42.5786
7.500000	99.062	-43.5987
7.620000	99.308	-44.8165
7.750000	99.568	-46.1233
7.880000	99.819	-47.4195
8.000000	100.044	-48.6037
8.120000	100.264	-49.7724
8.250000	100.495	-51.0222
8.380000	100.721	-52.2564
8.500000	100.925	-53.3816
8.620000	101.125	-54.4920
8.750000	101.337	-55.6849
8.850000	101.498	-56.5982
9.000000	101.736	-57.9569
9.120000	101.922	-59.0419
9.250000	102.123	-60.2207
9.380000	102.320	-61.4000
9.500000	102.498	-62.4938
9.620000	102.672	-63.5956
9.750000	102.855	-64.7962
9.880000	103.029	-66.0043
10.000000	103.182	-67.1274
10.150000	103.362	-68.5405
10.300000	103.532	-69.9588
10.440000	103.681	-71.2883
10.600000	103.843	-72.8102
10.750000	103.989	-74.2357
10.900000	104.128	-75.6607
11.060000	104.271	-77.1761
11.200000	104.392	-78.4987
11.380000	104.540	-80.1930
11.500000	104.635	-81.3189
11.720000	104.800	-83.3730
11.800000	104.857	-84.1165
12.060000	105.031	-86.5171
12.200000	105.120	-87.7948
12.410000	105.247	-89.6885
12.500000	105.300	-90.4863
12.650000	105.387	-91.8009
12.800000	105.471	-93.0883
13.150000	105.655	-95.9680
13.200000	105.680	-96.3639
13.400000	105.776	-97.9068
13.600000	105.867	-99.3882
13.800000	105.956	-100.8070
14.000000	106.043	-102.1750
14.300000	106.172	-104.1404
14.500000	106.257	-105.4065
14.750000	106.361	-106.9516
15.000000	106.463	-108.4620
15.250000	106.560	-109.9458
15.500000	106.652	-111.4079
15.750000	106.739	-112.8525
16.000000	106.820	-114.2862
16.250000	106.894	-115.7147
16.500000	106.959	-117.1393
16.750000	107.012	-118.5609
17.000000	107.051	-119.9686
17.250000	107.076	-121.3515
17.500000	107.085	-122.6953
17.750000	107.081	-123.9807
18.000000	107.065	-125.2006
18.250000	107.039	-126.3480
18.500000	107.007	-127.4255
18.750000	106.971	-128.4397
19.000000	106.932	-129.3964
19.250000	106.891	-130.3038
19.500000	106.849	-131.1628
19.750000	106.807	-131.9743
20.000000	106.767	-132.7367
20.299999	106.725	-133.5926
20.600000	106.693	-134.3980
20.900000	106.674	-135.1767
21.200001	106.669	-135.9598
21.400000	106.672	-136.4992
21.799999	106.690	-137.6299
22.000000	106.703	-138.2206
22.400000	106.732	-139.4352
22.700001	106.756	-140.3541
23.000000	106.783	-141.2632
23.299999	106.813	-142.1582
23.600000	106.846	-143.0393
24.000000	106.892	-144.1929
24.299999	106.927	-145.0371
24.700001	106.971	-146.1199
25.000000	107.001	-146.8874
25.400000	107.039	-147.8422
25.799999	107.075	-148.7224
26.200001	107.108	-149.5432
26.500000	107.130	-150.1293
26.900000	107.156	-150.8784
27.200001	107.170	-151.4177
27.600000	107.183	-152.1078
28.000000	107.191	-152.7696
28.500000	107.194	-153.5752
29.000000	107.193	-154.3937
29.500000	107.188	-155.2651
30.000000	107.174	-156.2117
30.400000	107.156	-157.0140
30.700001	107.138	-157.6289
31.100000	107.110	-158.4491
31.500000	107.082	-159.2624
32.000000	107.052	-160.2808
32.500000	107.029	-161.3262
33.000000	107.009	-162.4041
33.500000	106.989	-163.4852
34.000000	106.968	-164.5298
34.500000	106.949	-165.5212
35.000000	106.934	-166.4693
35.500000	106.921	-167.3871
36.000000	106.904	-168.2703
36.500000	106.883	-169.1029
37.000000	106.858	-169.8776
37.500000	106.833	-170.6083
38.200001	106.794	-171.6037
38.700001	106.760	-172.3050
39.500000	106.694	-173.3668
40.000000	106.654	-173.9893
40.599998	106.609	-174.7375
41.200001	106.564	-175.5208
41.799999	106.511	-176.3015
42.500000	106.444	-177.1229
43.099998	106.394	-177.7452
43.700001	106.351	-178.3496
44.400002	106.303	-179.0632
45.000000	106.256	-179.6466
45.500000	106.214	179.9146
46.200001	106.157	179.3641
46.799999	106.111	178.9183
47.500000	106.058	178.4036
48.200001	106.003	177.8972
48.700001	105.964	177.5394
49.400002	105.910	177.0345
50.000000	105.861	176.5980
50.799999	105.793	176.0207
51.500000	105.732	175.5176
52.200001	105.670	175.0197
53.000000	105.595	174.4977
53.799999	105.524	174.0526
54.500000	105.468	173.6965
55.200001	105.415	173.3400
56.000000	105.356	172.9286
57.000000	105.278	172.4283
58.000000	105.202	171.9565
59.000000	105.128	171.4804
60.000000	105.050	171.0057
60.799999	104.989	170.6735
61.500000	104.941	170.4043
62.200001	104.898	170.1245
63.000000	104.853	169.7883
64.000000	104.798	169.3737
65.000000	104.745	168.9907
66.000000	104.695	168.6340
67.000000	104.646	168.2845
68.000000	104.599	167.9486
69.000000	104.554	167.6173
70.000000	104.510	167.2814
71.000000	104.468	166.9389
72.000000	104.425	166.5799
73.000000	104.380	166.2265
74.000000	104.336	165.8968
75.000000	104.296	165.5777
76.199997	104.251	165.1840
77.500000	104.199	164.7610
78.800003	104.147	164.3679
80.000000	104.099	164.0143
81.199997	104.050	163.6743
82.500000	104.000	163.2905
83.800003	103.950	162.9055
85.000000	103.904	162.5485
86.199997	103.856	162.1956
87.500000	103.802	161.8359
88.500000	103.762	161.5710
90.000000	103.707	161.1569
91.199997	103.662	160.7949
92.500000	103.610	160.4146
93.800003	103.560	160.0503
95.000000	103.512	159.7270
96.199997	103.464	159.4186
97.500000	103.413	159.0895
98.800003	103.363	158.7525
100.000000	103.314	158.4352
101.500000	103.253	158.0551
103.000000	103.194	157.6892
104.400002	103.139	157.3532
106.000000	103.077	156.9866
107.500000	103.021	156.6300
109.000000	102.961	156.2632
110.599998	102.897	155.8886
112.000000	102.843	155.5605
113.800003	102.771	155.1480
115.000000	102.721	154.8870
117.199997	102.631	154.4156
118.000000	102.598	154.2414
120.599998	102.490	153.7032
122.000000	102.437	153.4302
124.099998	102.361	153.0190
125.000000	102.330	152.8448
126.500000	102.280	152.5564
128.000000	102.231	152.2715
131.500000	102.119	151.6295
132.000000	102.103	151.5407
134.000000	102.041	151.1926
136.000000	101.980	150.8471
138.000000	101.918	150.5135
140.000000	101.855	150.1951
143.000000	101.764	149.7248
145.000000	101.703	149.4132
147.500000	101.626	149.0377
150.000000	101.549	148.6712
152.500000	101.471	148.3149
155.000000	101.392	147.9722
157.500000	101.312	147.6455
160.000000	101.229	147.3361
162.500000	101.140	147.0378
165.000000	101.048	146.7433
167.500000	100.953	146.4644
170.000000	100.860	146.2097
172.500000	100.767	145.9741
175.000000	100.676	145.7599
177.500000	100.585	145.5618
180.000000	100.497	145.3619
182.500000	100.411	145.1571
185.000000	100.328	144.9467
187.500000	100.244	144.7295
190.000000	100.159	144.5162
192.500000	100.071	144.3097
195.000000	99.983	144.1069
197.500000	99.895	143.9200
200.000000	99.808	143.7617
203.000000	99.705	143.6151
206.000000	99.604	143.5097
209.000000	99.508	143.4478
212.000000	99.420	143.4249
214.000000	99.366	143.4199
218.000000	99.269	143.4161
220.000000	99.226	143.4033
224.000000	99.149	143.3247
227.000000	99.092	143.2253
230.000000	99.034	143.0936
233.000000	98.975	142.9356
236.000000	98.911	142.7612
240.000000	98.823	142.5258
243.000000	98.755	142.3628
247.000000	98.662	142.1524
250.000000	98.590	141.9878
254.000000	98.487	141.7751
258.000000	98.378	141.5921
262.000000	98.267	141.4523
265.000000	98.184	141.3767
269.000000	98.076	141.3119
272.000000	98.000	141.2920
276.000000	97.902	141.3012
280.000000	97.807	141.3491
285.000000	97.691	141.4826
290.000000	97.573	141.6819
295.000000	97.452	141.9158
300.000000	97.329	142.1601
304.000000	97.232	142.3522
307.000000	97.161	142.5026
311.000000	97.070	142.7214
315.000000	96.984	142.9519
320.000000	96.883	143.2464
325.000000	96.789	143.5573
330.000000	96.696	143.8767
335.000000	96.603	144.2079
340.000000	96.511	144.5509
345.000000	96.420	144.9038
350.000000	96.329	145.2715
355.000000	96.239	145.6567
360.000000	96.150	146.0611
365.000000	96.063	146.4819
370.000000	95.977	146.9177
375.000000	95.892	147.3671
382.000000	95.777	148.0080
387.000000	95.697	148.4820
395.000000	95.569	149.2750
400.000000	95.491	149.7867
406.000000	95.401	150.4177
412.000000	95.313	151.0715
418.000000	95.228	151.7436
425.000000	95.132	152.5414
431.000000	95.052	153.2364
437.000000	94.975	153.9510
444.000000	94.890	154.8099
450.000000	94.819	155.5535
455.000000	94.762	156.1764
462.000000	94.686	157.0665
468.000000	94.624	157.8456
475.000000	94.556	158.7604
482.000000	94.493	159.6841
487.000000	94.451	160.3477
494.000000	94.394	161.2825
500.000000	94.350	162.0918
508.000000	94.298	163.1798
515.000000	94.258	164.1314
522.000000	94.222	165.0828
530.000000	94.185	166.1738
538.000000	94.153	167.2608
545.000000	94.127	168.2082
552.000000	94.105	169.1550
560.000000	94.082	170.2334
570.000000	94.059	171.5793
580.000000	94.041	172.9115
590.000000	94.027	174.2338
600.000000	94.018	175.5430
608.000000	94.014	176.5771
615.000000	94.012	177.4767
622.000000	94.012	178.3751
630.000000	94.016	179.4014
640.000000	94.029	-179.3181
650.000000	94.048	-178.0465
660.000000	94.070	-176.7889
670.000000	94.095	-175.5364
680.000000	94.122	-174.2939
690.000000	94.151	-173.0655
700.000000	94.182	-171.8518
710.000000	94.213	-170.6581
720.000000	94.246	-169.4747
730.000000	94.279	-168.2936
740.000000	94.312	-167.1169
750.000000	94.345	-165.9489
762.000000	94.386	-164.5571
775.000000	94.431	-163.0538
788.000000	94.476	-161.5437
800.000000	94.513	-160.1458
812.000000	94.546	-158.7437
825.000000	94.579	-157.2149
838.000000	94.611	-155.6476
850.000000	94.652	-154.1795
862.000000	94.705	-152.7892
875.000000	94.762	-151.4477
885.000000	94.798	-150.5412
900.000000	94.842	-149.3906
912.000000	94.883	-148.6235
925.000000	94.941	-147.8559
938.000000	95.007	-147.0842
950.000000	95.070	-146.3792
962.000000	95.137	-145.6914
975.000000	95.214	-144.9704
988.000000	95.291	-144.2771
1000.000000	95.356	-143.6600
1015.000000	95.424	-142.9254
1030.000000	95.485	-142.2375
1044.000000	95.545	-141.6330
1060.000000	95.615	-140.9861
1075.000000	95.683	-140.4263
1090.000000	95.754	-139.9123
1106.000000	95.830	-139.4121
1120.000000	95.898	-139.0120
1138.000000	95.986	-138.5490
1150.000000	96.043	-138.2714
1172.000000	96.147	-137.8149
1180.000000	96.184	-137.6652
1206.000000	96.303	-137.2372
1220.000000	96.365	-137.0436
1241.000000	96.460	-136.8022
1250.000000	96.504	-136.7152
1265.000000	96.585	-136.5879
1280.000000	96.671	-136.4799
1315.000000	96.872	-136.2744
1320.000000	96.899	-136.2480
1340.000000	97.011	-136.1450
1360.000000	97.121	-136.0418
1380.000000	97.229	-135.9381
1400.000000	97.336	-135.8306
1430.000000	97.498	-135.6581
1450.000000	97.609	-135.5383
1475.000000	97.749	-135.3826
1500.000000	97.895	-135.2260
1525.000000	98.045	-135.0681
1550.000000	98.203	-134.9159
1575.000000	98.369	-134.7774
1600.000000	98.546	-134.6623
1625.000000	98.736	-134.5751
1650.000000	98.938	-134.5220
1675.000000	99.149	-134.5267
1700.000000	99.368	-134.6000
1725.000000	99.596	-134.7472
1750.000000	99.830	-134.9690
1775.000000	100.070	-135.2724
1800.000000	100.314	-135.6724
1825.000000	100.560	-136.1745
1850.000000	100.805	-136.7773
1875.000000	101.050	-137.4718
1900.000000	101.292	-138.2586
1925.000000	101.529	-139.1425
1950.000000	101.760	-140.1209
1975.000000	101.983	-141.1857
2000.000000	102.201	-142.3202
2030.000000	102.452	-143.7599
2060.000000	102.691	-145.2721
2090.000000	102.919	-146.8494
2120.000000	103.133	-148.4839
2140.000000	103.269	-149.6032
2180.000000	103.524	-151.8940
2200.000000	103.644	-153.0571
2240.000000	103.873	-155.4093
2270.000000	104.032	-157.1921
2300.000000	104.180	-158.9920
2330.000000	104.318	-160.7974
2360.000000	104.449	-162.5945
2400.000000	104.613	-164.9625
2430.000000	104.731	-166.7078
2470.000000	104.889	-169.0050
2500.000000	105.012	-170.7311
2540.000000	105.183	-173.1068
2580.000000	105.356	-175.6361
2620.000000	105.513	-178.3438
2650.000000	105.611	179.5433
2690.000000	105.716	176.6970
2720.000000	105.778	174.5811
2760.000000	105.842	171.7853
2800.000000	105.885	169.0155
2850.000000	105.923	165.6310
2900.000000	105.948	162.3541
2950.000000	105.958	159.1466
3000.000000	105.956	155.9845
3040.000000	105.949	153.4954
3070.000000	105.940	151.6618
3110.000000	105.926	149.2699
3150.000000	105.914	146.9248
3200.000000	105.901	144.0231
3250.000000	105.888	141.1335
3300.000000	105.873	138.2746
3350.000000	105.854	135.4540
3400.000000	105.832	132.6685
3450.000000	105.807	129.9164
3500.000000	105.779	127.1891
3550.000000	105.748	124.4822
3600.000000	105.712	121.7847
3650.000000	105.670	119.0724
3700.000000	105.616	116.3289
3750.000000	105.544	113.5637
3820.000000	105.389	109.7387
3870.000000	105.220	107.2292
3950.000000	104.892	104.4610
4000.000000	104.765	103.6840
4060.000000	104.780	102.8868
4120.000000	104.920	101.3520
4180.000000	105.073	99.0224
4250.000000	105.207	95.7454
4310.000000	105.282	92.7508
4370.000000	105.333	89.7220
4440.000000	105.377	86.1927
4500.000000	105.410	83.1635
4550.000000	105.435	80.6354
4620.000000	105.469	77.0950
4680.000000	105.495	74.0379
4750.000000	105.522	70.4295
4820.000000	105.549	66.7853
4870.000000	105.568	64.1681
4940.000000	105.598	60.4975
5000.000000	105.629	57.3164
5080.000000	105.677	52.9995
5150.000000	105.727	49.1893
5220.000000	105.769	45.4644
5300.000000	105.814	42.0013
5380.000000	105.901	40.1494
5450.000000	105.978	39.4542
5520.000000	106.041	38.9794
5600.000000	106.103	38.4157
5700.000000	106.168	37.6021
5800.000000	106.224	36.7383
5900.000000	106.267	35.8322
6000.000000	106.293	34.8555
6080.000000	106.295	33.9885
6150.000000	106.277	33.1792
6220.000000	106.239	32.3701
6300.000000	106.165	31.4781
6400.000000	106.017	30.4561
6500.000000	105.819	29.6236
6600.000000	105.579	29.0231
6700.000000	105.310	28.7558
6800.000000	105.031	28.9323
6900.000000	104.752	29.4860
7000.000000	104.490	30.3825
7100.000000	104.262	31.6242
7200.000000	104.087	33.1480
7300.000000	103.975	34.7726
7400.000000	103.926	36.3266
7500.000000	103.932	37.7101
7620.000000	103.996	39.0258
7750.000000	104.106	39.8404
7880.000000	104.196	39.7982
8000.000000	104.208	39.0963
8120.000000	104.103	37.9695
8250.000000	103.827	36.6235
8380.000000	103.381	35.5580
8500.000000	102.847	35.1720
8620.000000	102.230	35.5180
8750.000000	101.504	36.7108
8850.000000	100.926	38.1962
9000.000000	100.055	41.2946
9120.000000	99.369	44.4351
9250.000000	98.653	48.4561
9380.000000	97.976	53.0464
9500.000000	97.391	57.7065
9620.000000	96.850	62.7174
9750.000000	96.314	68.4748
9880.000000	95.830	74.5333
10000.000000	95.431	80.3452
10150.000000	94.989	87.7798
10300.000000	94.600	95.3233
10440.000000	94.282	102.5207
10600.000000	93.980	111.0418
10750.000000	93.766	119.2446
10900.000000	93.625	127.4792
11060.000000	93.534	136.1533
11200.000000	93.482	143.6676
11380.000000	93.449	153.3561
11500.000000	93.453	159.8507
11720.000000	93.528	171.8230
11800.000000	93.575	176.2004
12060.000000	93.797	-169.4989
12200.000000	93.956	-161.8177
12410.000000	94.243	-150.4037
12500.000000	94.385	-145.5160
12650.000000	94.651	-137.3144
12800.000000	94.962	-129.0021
13150.000000	95.902	-109.5041
13200.000000	96.066	-106.7344
13400.000000	96.808	-95.7407
13600.000000	97.702	-84.9916
13800.000000	98.764	-74.6617
14000.000000	100.023	-64.9286
14300.000000	102.458	-52.0133
14500.000000	104.585	-45.7215
14750.000000	107.615	-44.4240
15000.000000	109.948	-56.3224
15250.000000	110.169	-77.9460
15500.000000	108.160	-92.0979
15750.000000	105.173	-92.3368
16000.000000	102.450	-84.2466
16250.000000	100.445	-72.3156
16500.000000	99.050	-58.5144
16750.000000	98.051	-43.8802
17000.000000	97.344	-30.0911
17250.000000	96.852	-20.4146
17500.000000	96.508	-15.7243
17750.000000	96.332	-13.2759
18000.000000	96.306	-11.8125
18250.000000	96.400	-11.4552
18500.000000	96.562	-12.5492
18750.000000	96.693	-15.5940
19000.000000	96.648	-20.9742
19250.000000	96.246	-28.6102
19500.000000	95.336	-37.4121
19750.000000	93.981	-45.1833
