* Measurement data measured by REW V5.20.13
* Source: 마이크(EPOS GSX 30, MICROPHONE (마스), L, volume: 0.800. Timing signal peak level -12.3 dBFS, measurement signal peak level -12.3 dBFS
* Format: 256k Log Swept Sine, 1 sweep at -12.0 dBFS using an acoustic timing reference
* Dated: 2023. 9. 20 오전 12:21:22
* REW Settings:
*  C-weighting compensation: Off
*  Target level: 75.0 dB
* Note: ; Delay -0.0178 ms (-6.1 mm, -0.24 in) using estimated IR delay relative to Acoustic reference played from SPEAKER L with no timing offset
* Measurement: Velvet L
* Smoothing: 1/24 octave
* Frequency Step: 1/48 octave
* Start Frequency: 1.000 Hz
*
* Freq(Hz)	SPL(dB)	Phase(degrees)
1.000000	51.769	39.3388
1.015000	52.146	41.3907
1.030000	52.520	43.3452
1.044000	52.866	45.0702
1.060000	53.255	46.9105
1.075000	53.611	48.4957
1.090000	53.957	49.9322
1.106000	54.316	51.2964
1.120000	54.635	52.4004
1.138000	55.057	53.7161
1.150000	55.345	54.5305
1.172000	55.884	55.8977
1.180000	56.083	56.3557
1.206000	56.740	57.7062
1.220000	57.098	58.3491
1.241000	57.639	59.2085
1.250000	57.872	59.5396
1.265000	58.260	60.0439
1.280000	58.649	60.4908
1.315000	59.550	61.3246
1.320000	59.677	61.4211
1.340000	60.183	61.7546
1.360000	60.680	62.0080
1.380000	61.166	62.1872
1.400000	61.639	62.2981
1.430000	62.320	62.3490
1.450000	62.751	62.3146
1.475000	63.262	62.1871
1.500000	63.750	61.8267
1.525000	64.220	61.2274
1.550000	64.672	60.4222
1.575000	65.108	59.4444
1.600000	65.529	58.3270
1.625000	65.938	57.1032
1.650000	66.334	55.8060
1.675000	66.721	54.4687
1.700000	67.098	53.1242
1.725000	67.468	51.8059
1.750000	67.832	50.5467
1.775000	68.191	49.3798
1.800000	68.547	48.3383
1.825000	68.901	47.4553
1.850000	69.251	46.7296
1.875000	69.593	46.0897
1.900000	69.926	45.5215
1.925000	70.251	45.0143
1.950000	70.568	44.5573
1.975000	70.878	44.1396
2.000000	71.181	43.7504
2.030000	71.538	43.3056
2.060000	71.886	42.8675
2.090000	72.228	42.4174
2.120000	72.565	41.9365
2.140000	72.786	41.5895
2.180000	73.224	40.8074
2.200000	73.441	40.3613
2.240000	73.866	39.3875
2.270000	74.176	38.6063
2.300000	74.479	37.7904
2.330000	74.775	36.9478
2.360000	75.065	36.0865
2.400000	75.444	34.9228
2.430000	75.722	34.0490
2.470000	76.086	32.8979
2.500000	76.355	32.0553
2.540000	76.708	30.9748
2.580000	77.057	29.9563
2.620000	77.397	28.9716
2.650000	77.646	28.2485
2.690000	77.972	27.3034
2.720000	78.211	26.6074
2.760000	78.525	25.6947
2.800000	78.832	24.7974
2.850000	79.208	23.6939
2.900000	79.577	22.6063
2.950000	79.940	21.5331
3.000000	80.293	20.4941
3.040000	80.570	19.6855
3.070000	80.773	19.0886
3.110000	81.040	18.3013
3.150000	81.302	17.5189
3.200000	81.624	16.5396
3.250000	81.940	15.5492
3.300000	82.251	14.5372
3.350000	82.556	13.4953
3.400000	82.854	12.4309
3.450000	83.145	11.3564
3.500000	83.430	10.2841
3.550000	83.710	9.2264
3.600000	83.985	8.1956
3.650000	84.256	7.2042
3.700000	84.522	6.2626
3.750000	84.783	5.3662
3.820000	85.139	4.1639
3.870000	85.388	3.3259
3.950000	85.777	1.9865
4.000000	86.015	1.1310
4.060000	86.296	0.0679
4.120000	86.570	-1.0266
4.180000	86.838	-2.1369
4.250000	87.144	-3.4325
4.310000	87.401	-4.5263
4.370000	87.653	-5.5889
4.440000	87.940	-6.7743
4.500000	88.181	-7.7518
4.550000	88.378	-8.5473
4.620000	88.649	-9.6431
4.680000	88.875	-10.5768
4.750000	89.135	-11.6735
4.820000	89.389	-12.7859
4.870000	89.567	-13.5842
4.940000	89.811	-14.7005
5.000000	90.016	-15.6508
5.080000	90.283	-16.8990
5.150000	90.512	-17.9655
5.220000	90.737	-19.0090
5.300000	90.987	-20.1800
5.380000	91.231	-21.3337
5.450000	91.440	-22.3335
5.520000	91.646	-23.3282
5.600000	91.876	-24.4550
5.700000	92.155	-25.8466
5.800000	92.427	-27.2192
5.900000	92.692	-28.5725
6.000000	92.950	-29.9070
6.080000	93.151	-30.9607
6.150000	93.324	-31.8724
6.220000	93.494	-32.7741
6.300000	93.684	-33.7911
6.400000	93.917	-35.0425
6.500000	94.143	-36.2766
6.600000	94.364	-37.4985
6.700000	94.580	-38.7095
6.800000	94.790	-39.9071
6.900000	94.996	-41.0890
7.000000	95.196	-42.2531
7.100000	95.392	-43.3982
7.200000	95.583	-44.5277
7.300000	95.770	-45.6456
7.400000	95.953	-46.7544
7.500000	96.132	-47.8521
7.620000	96.340	-49.1537
7.750000	96.560	-50.5432
7.880000	96.773	-51.9109
8.000000	96.964	-53.1564
8.120000	97.150	-54.3883
8.250000	97.345	-55.7065
8.380000	97.534	-57.0067
8.500000	97.704	-58.1903
8.620000	97.868	-59.3584
8.750000	98.040	-60.6051
8.850000	98.169	-61.5502
9.000000	98.356	-62.9459
9.120000	98.501	-64.0425
9.250000	98.654	-65.2099
9.380000	98.804	-66.3563
9.500000	98.937	-67.3953
9.620000	99.065	-68.4153
9.750000	99.199	-69.4990
9.880000	99.326	-70.5635
10.000000	99.436	-71.5294
10.150000	99.565	-72.7140
10.300000	99.688	-73.8780
10.440000	99.795	-74.9447
10.600000	99.912	-76.1451
10.750000	100.019	-77.2557
10.900000	100.123	-78.3513
11.060000	100.232	-79.5072
11.200000	100.324	-80.5073
11.380000	100.439	-81.7791
11.500000	100.514	-82.6189
11.720000	100.644	-84.1400
11.800000	100.690	-84.6869
12.060000	100.833	-86.4413
12.200000	100.907	-87.3699
12.410000	101.018	-88.7416
12.500000	101.066	-89.3209
12.650000	101.146	-90.2752
12.800000	101.226	-91.2153
13.150000	101.410	-93.3531
13.200000	101.436	-93.6524
13.400000	101.536	-94.8339
13.600000	101.633	-95.9931
13.800000	101.727	-97.1306
14.000000	101.818	-98.2500
14.300000	101.949	-99.8975
14.500000	102.034	-100.9781
14.750000	102.135	-102.3100
15.000000	102.232	-103.6213
15.250000	102.323	-104.9096
15.500000	102.410	-106.1707
15.750000	102.492	-107.4022
16.000000	102.570	-108.6007
16.250000	102.647	-109.7678
16.500000	102.722	-110.9058
16.750000	102.796	-112.0191
17.000000	102.867	-113.1133
17.250000	102.936	-114.1900
17.500000	103.001	-115.2506
17.750000	103.062	-116.2916
18.000000	103.120	-117.3102
18.250000	103.176	-118.3034
18.500000	103.229	-119.2710
18.750000	103.281	-120.2173
19.000000	103.331	-121.1464
19.250000	103.381	-122.0673
19.500000	103.429	-122.9824
19.750000	103.473	-123.8934
20.000000	103.514	-124.7957
20.299999	103.557	-125.8549
20.600000	103.596	-126.8769
20.900000	103.631	-127.8529
21.200001	103.666	-128.7841
21.400000	103.691	-129.3877
21.799999	103.743	-130.5739
22.000000	103.770	-131.1660
22.400000	103.823	-132.3608
22.700001	103.860	-133.2632
23.000000	103.893	-134.1608
23.299999	103.923	-135.0441
23.600000	103.950	-135.9097
24.000000	103.985	-137.0381
24.299999	104.009	-137.8701
24.700001	104.039	-138.9636
25.000000	104.058	-139.7681
25.400000	104.079	-140.8097
25.799999	104.098	-141.8073
26.200001	104.116	-142.7642
26.500000	104.130	-143.4631
26.900000	104.150	-144.3806
27.200001	104.164	-145.0627
27.600000	104.181	-145.9644
28.000000	104.196	-146.8540
28.500000	104.210	-147.9422
29.000000	104.219	-148.9980
29.500000	104.226	-150.0182
30.000000	104.231	-151.0078
30.400000	104.234	-151.7852
30.700001	104.236	-152.3629
31.100000	104.236	-153.1237
31.500000	104.234	-153.8667
32.000000	104.231	-154.7608
32.500000	104.229	-155.6237
33.000000	104.230	-156.4798
33.500000	104.230	-157.3424
34.000000	104.225	-158.1971
34.500000	104.217	-159.0194
35.000000	104.209	-159.8032
35.500000	104.201	-160.5641
36.000000	104.195	-161.3170
36.500000	104.187	-162.0623
37.000000	104.178	-162.7948
37.500000	104.167	-163.5161
38.200001	104.149	-164.5163
38.700001	104.131	-165.2158
39.500000	104.098	-166.2719
40.000000	104.078	-166.8927
40.599998	104.058	-167.6219
41.200001	104.039	-168.3523
41.799999	104.018	-169.0754
42.500000	103.990	-169.8794
43.099998	103.968	-170.5216
43.700001	103.951	-171.1384
44.400002	103.937	-171.8680
45.000000	103.925	-172.5212
45.500000	103.912	-173.0748
46.200001	103.886	-173.8321
46.799999	103.859	-174.4464
47.500000	103.828	-175.1271
48.200001	103.797	-175.7877
48.700001	103.775	-176.2544
49.400002	103.742	-176.9003
50.000000	103.711	-177.4440
50.799999	103.666	-178.1592
51.500000	103.623	-178.7790
52.200001	103.578	-179.3832
53.000000	103.527	179.9584
53.799999	103.475	179.3343
54.500000	103.430	178.8126
55.200001	103.385	178.3151
56.000000	103.332	177.7881
57.000000	103.274	177.1716
58.000000	103.219	176.5088
59.000000	103.155	175.8303
60.000000	103.091	175.1987
60.799999	103.044	174.6784
61.500000	103.002	174.2031
62.200001	102.959	173.7280
63.000000	102.910	173.1981
64.000000	102.851	172.5610
65.000000	102.793	171.9749
66.000000	102.739	171.4474
67.000000	102.690	170.9277
68.000000	102.640	170.4039
69.000000	102.588	169.9103
70.000000	102.538	169.4455
71.000000	102.491	168.9787
72.000000	102.441	168.5190
73.000000	102.390	168.0868
74.000000	102.340	167.6534
75.000000	102.285	167.2302
76.199997	102.218	166.7682
77.500000	102.149	166.2689
78.800003	102.077	165.7602
80.000000	102.012	165.3210
81.199997	101.950	164.8802
82.500000	101.880	164.4084
83.800003	101.808	163.9767
85.000000	101.744	163.5988
86.199997	101.679	163.2267
87.500000	101.607	162.8286
88.500000	101.552	162.5216
90.000000	101.467	162.0773
91.199997	101.401	161.7372
92.500000	101.330	161.3864
93.800003	101.260	161.0624
95.000000	101.197	160.7814
96.199997	101.136	160.5016
97.500000	101.069	160.2024
98.800003	101.002	159.9137
100.000000	100.940	159.6581
101.500000	100.861	159.3494
103.000000	100.782	159.0474
104.400002	100.708	158.7707
106.000000	100.622	158.4694
107.500000	100.543	158.2097
109.000000	100.468	157.9564
110.599998	100.389	157.6833
112.000000	100.319	157.4585
113.800003	100.230	157.2015
115.000000	100.173	157.0427
117.199997	100.071	156.7448
118.000000	100.032	156.6405
120.599998	99.907	156.3417
122.000000	99.840	156.1879
124.099998	99.744	155.9561
125.000000	99.706	155.8536
126.500000	99.646	155.6841
128.000000	99.589	155.5347
131.500000	99.464	155.2464
132.000000	99.447	155.2075
134.000000	99.377	155.0551
136.000000	99.308	154.9046
138.000000	99.238	154.7616
140.000000	99.168	154.6435
143.000000	99.064	154.4857
145.000000	98.995	154.3839
147.500000	98.913	154.2744
150.000000	98.833	154.1705
152.500000	98.753	154.0903
155.000000	98.674	154.0355
157.500000	98.598	153.9838
160.000000	98.519	153.9274
162.500000	98.432	153.8817
165.000000	98.341	153.8542
167.500000	98.253	153.8445
170.000000	98.170	153.8345
172.500000	98.089	153.8381
175.000000	98.011	153.8463
177.500000	97.931	153.8464
180.000000	97.850	153.8518
182.500000	97.771	153.8534
185.000000	97.693	153.8551
187.500000	97.616	153.8727
190.000000	97.540	153.9012
192.500000	97.464	153.9324
195.000000	97.389	153.9694
197.500000	97.316	154.0209
200.000000	97.245	154.0769
203.000000	97.165	154.1429
206.000000	97.088	154.2203
209.000000	97.013	154.3226
212.000000	96.939	154.4353
214.000000	96.889	154.5104
218.000000	96.792	154.6510
220.000000	96.746	154.7206
224.000000	96.655	154.8680
227.000000	96.585	154.9856
230.000000	96.517	155.1179
233.000000	96.452	155.2606
236.000000	96.387	155.4128
240.000000	96.300	155.6316
243.000000	96.238	155.8011
247.000000	96.156	156.0357
250.000000	96.094	156.2230
254.000000	96.013	156.4845
258.000000	95.935	156.7332
262.000000	95.859	156.9760
265.000000	95.802	157.1570
269.000000	95.725	157.3864
272.000000	95.667	157.5548
276.000000	95.591	157.7899
280.000000	95.516	158.0399
285.000000	95.425	158.3665
290.000000	95.335	158.7161
295.000000	95.249	159.0942
300.000000	95.168	159.5008
304.000000	95.109	159.8421
307.000000	95.070	160.1037
311.000000	95.025	160.4502
315.000000	94.988	160.7730
320.000000	94.954	161.1157
325.000000	94.926	161.3994
330.000000	94.895	161.6411
335.000000	94.861	161.8470
340.000000	94.823	162.0461
345.000000	94.780	162.2483
350.000000	94.734	162.4603
355.000000	94.687	162.6929
360.000000	94.639	162.9406
365.000000	94.592	163.2000
370.000000	94.545	163.4744
375.000000	94.499	163.7543
382.000000	94.437	164.1635
387.000000	94.395	164.4646
395.000000	94.329	164.9587
400.000000	94.289	165.2735
406.000000	94.243	165.6591
412.000000	94.200	166.0516
418.000000	94.158	166.4424
425.000000	94.109	166.9162
431.000000	94.070	167.3385
437.000000	94.035	167.7764
444.000000	94.000	168.2999
450.000000	93.975	168.7443
455.000000	93.958	169.1013
462.000000	93.937	169.5641
468.000000	93.920	169.9215
475.000000	93.899	170.3132
482.000000	93.876	170.7007
487.000000	93.857	170.9824
494.000000	93.832	171.3774
500.000000	93.811	171.7148
508.000000	93.785	172.1739
515.000000	93.763	172.5890
522.000000	93.743	173.0103
530.000000	93.723	173.4998
538.000000	93.705	173.9927
545.000000	93.691	174.4232
552.000000	93.677	174.8561
560.000000	93.663	175.3558
570.000000	93.647	175.9885
580.000000	93.634	176.6189
590.000000	93.624	177.2555
600.000000	93.617	177.8996
608.000000	93.614	178.4102
615.000000	93.614	178.8500
622.000000	93.615	179.2856
630.000000	93.619	179.7808
640.000000	93.630	-179.5986
650.000000	93.647	-178.9763
660.000000	93.666	-178.3584
670.000000	93.686	-177.7469
680.000000	93.709	-177.1280
690.000000	93.735	-176.4996
700.000000	93.761	-175.8841
710.000000	93.789	-175.2726
720.000000	93.819	-174.6533
730.000000	93.851	-174.0408
740.000000	93.886	-173.4280
750.000000	93.923	-172.8104
762.000000	93.970	-172.0690
775.000000	94.023	-171.2618
788.000000	94.081	-170.4573
800.000000	94.135	-169.7281
812.000000	94.186	-169.0102
825.000000	94.242	-168.2393
838.000000	94.301	-167.4771
850.000000	94.361	-166.7814
862.000000	94.424	-166.0993
875.000000	94.497	-165.3797
885.000000	94.556	-164.8388
900.000000	94.647	-164.0476
912.000000	94.722	-163.4320
925.000000	94.806	-162.7781
938.000000	94.894	-162.1333
950.000000	94.978	-161.5469
962.000000	95.065	-160.9686
975.000000	95.165	-160.3530
988.000000	95.267	-159.7571
1000.000000	95.357	-159.2313
1015.000000	95.459	-158.6116
1030.000000	95.556	-158.0399
1044.000000	95.648	-157.5591
1060.000000	95.759	-157.0730
1075.000000	95.865	-156.6789
1090.000000	95.973	-156.3449
1106.000000	96.089	-156.0506
1120.000000	96.190	-155.8395
1138.000000	96.320	-155.6277
1150.000000	96.405	-155.5204
1172.000000	96.559	-155.3906
1180.000000	96.614	-155.3642
1206.000000	96.791	-155.3449
1220.000000	96.884	-155.3738
1241.000000	97.027	-155.4656
1250.000000	97.093	-155.5205
1265.000000	97.209	-155.6312
1280.000000	97.330	-155.7677
1315.000000	97.611	-156.1705
1320.000000	97.650	-156.2370
1340.000000	97.805	-156.5266
1360.000000	97.956	-156.8500
1380.000000	98.103	-157.2051
1400.000000	98.247	-157.5937
1430.000000	98.457	-158.2370
1450.000000	98.592	-158.7005
1475.000000	98.756	-159.3215
1500.000000	98.914	-159.9865
1525.000000	99.066	-160.6915
1550.000000	99.211	-161.4381
1575.000000	99.350	-162.2276
1600.000000	99.484	-163.0527
1625.000000	99.615	-163.9129
1650.000000	99.740	-164.8049
1675.000000	99.857	-165.7257
1700.000000	99.965	-166.6736
1725.000000	100.064	-167.6423
1750.000000	100.153	-168.6286
1775.000000	100.233	-169.6288
1800.000000	100.303	-170.6373
1825.000000	100.363	-171.6496
1850.000000	100.414	-172.6587
1875.000000	100.455	-173.6603
1900.000000	100.486	-174.6523
1925.000000	100.508	-175.6296
1950.000000	100.522	-176.5860
1975.000000	100.528	-177.5183
2000.000000	100.526	-178.4223
2030.000000	100.515	-179.4632
2060.000000	100.495	179.5457
2090.000000	100.467	178.6078
2120.000000	100.432	177.7267
2140.000000	100.405	177.1726
2180.000000	100.344	176.1481
2200.000000	100.310	175.6789
2240.000000	100.237	174.8244
2270.000000	100.180	174.2551
2300.000000	100.121	173.7470
2330.000000	100.062	173.3005
2360.000000	100.004	172.9113
2400.000000	99.927	172.4783
2430.000000	99.871	172.2168
2470.000000	99.800	171.9462
2500.000000	99.750	171.7977
2540.000000	99.688	171.6656
2580.000000	99.633	171.6049
2620.000000	99.585	171.6088
2650.000000	99.554	171.6495
2690.000000	99.519	171.7500
2720.000000	99.498	171.8553
2760.000000	99.478	172.0311
2800.000000	99.466	172.2425
2850.000000	99.464	172.5477
2900.000000	99.477	172.8874
2950.000000	99.506	173.2512
3000.000000	99.551	173.6275
3040.000000	99.599	173.9288
3070.000000	99.642	174.1500
3110.000000	99.711	174.4343
3150.000000	99.794	174.7022
3200.000000	99.922	175.0052
3250.000000	100.072	175.2671
3300.000000	100.241	175.4793
3350.000000	100.432	175.6260
3400.000000	100.645	175.6827
3450.000000	100.883	175.6113
3500.000000	101.144	175.3529
3550.000000	101.421	174.8495
3600.000000	101.705	174.0669
3650.000000	101.989	172.9954
3700.000000	102.265	171.6309
3750.000000	102.525	169.9699
3820.000000	102.853	167.1370
3870.000000	103.047	164.7520
3950.000000	103.256	160.3693
4000.000000	103.301	157.3491
4060.000000	103.245	153.5700
4120.000000	103.070	149.7873
4180.000000	102.782	146.1985
4250.000000	102.314	142.5249
4310.000000	101.819	140.0173
4370.000000	101.264	138.2430
4440.000000	100.574	137.2056
4500.000000	99.981	137.2375
4550.000000	99.511	137.9042
4620.000000	98.930	139.7408
4680.000000	98.546	142.0014
4750.000000	98.282	145.0684
4820.000000	98.241	147.9965
4870.000000	98.330	149.6109
4940.000000	98.549	150.7816
5000.000000	98.740	150.6653
5080.000000	98.878	149.2501
5150.000000	98.833	147.4897
5220.000000	98.637	145.8850
5300.000000	98.291	144.7243
5380.000000	97.899	144.3632
5450.000000	97.558	144.4872
5520.000000	97.215	144.8914
5600.000000	96.814	145.7903
5700.000000	96.333	147.6840
5800.000000	95.921	150.2853
5900.000000	95.602	153.3699
6000.000000	95.383	156.7577
6080.000000	95.282	159.5864
6150.000000	95.246	162.0807
6220.000000	95.256	164.5380
6300.000000	95.310	167.2494
6400.000000	95.427	170.4431
6500.000000	95.590	173.4039
6600.000000	95.792	176.1559
6700.000000	96.032	178.7387
6800.000000	96.314	-178.8141
6900.000000	96.651	-176.4950
7000.000000	97.052	-174.3336
7100.000000	97.527	-172.3974
7200.000000	98.084	-170.7805
7300.000000	98.729	-169.6122
7400.000000	99.466	-169.0635
7500.000000	100.296	-169.3623
7620.000000	101.401	-171.3095
7750.000000	102.649	-176.2514
7880.000000	103.725	174.8909
8000.000000	104.268	163.2910
8120.000000	104.155	150.2164
8250.000000	103.283	137.6086
8380.000000	101.876	128.8406
8500.000000	100.389	124.3037
8620.000000	98.919	122.4315
8750.000000	97.455	122.4936
8850.000000	96.443	123.5570
9000.000000	95.111	126.2762
9120.000000	94.188	129.1417
9250.000000	93.313	132.7353
9380.000000	92.555	136.7061
9500.000000	91.954	140.6208
9620.000000	91.445	144.6927
9750.000000	90.997	149.1799
9880.000000	90.650	153.6469
10000.000000	90.409	157.6918
10150.000000	90.198	162.6442
10300.000000	90.087	167.4799
10440.000000	90.080	171.7392
10600.000000	90.176	176.1040
10750.000000	90.349	179.5814
10900.000000	90.582	-177.6620
11060.000000	90.855	-175.6438
11200.000000	91.071	-174.7117
11380.000000	91.250	-174.5678
11500.000000	91.272	-174.9340
11720.000000	91.081	-175.6967
11800.000000	90.949	-175.7784
12060.000000	90.402	-174.9338
12200.000000	90.069	-173.8324
12410.000000	89.553	-171.2838
12500.000000	89.344	-169.8381
12650.000000	89.038	-166.9969
12800.000000	88.810	-163.7309
13150.000000	88.658	-155.3478
13200.000000	88.685	-154.1451
13400.000000	88.931	-149.5420
13600.000000	89.425	-145.6201
13800.000000	90.178	-143.0907
14000.000000	91.123	-143.0144
14300.000000	92.448	-149.9784
14500.000000	92.798	-159.5784
14750.000000	92.185	-173.2608
15000.000000	90.492	177.2380
15250.000000	88.268	174.4869
15500.000000	86.097	177.1665
15750.000000	84.299	-176.8673
16000.000000	82.984	-169.2373
16250.000000	82.190	-160.9665
16500.000000	81.841	-152.7137
16750.000000	81.847	-145.0449
17000.000000	82.155	-138.6437
17250.000000	82.675	-134.3807
17500.000000	83.211	-133.0224
17750.000000	83.470	-134.3710
18000.000000	83.227	-136.3262
18250.000000	82.573	-135.4816
18500.000000	82.113	-130.3833
18750.000000	82.556	-124.3843
19000.000000	83.606	-123.4946
19250.000000	84.288	-129.5248
19500.000000	84.197	-138.4863
19750.000000	83.498	-146.0314
