* Measurement data measured by REW V5.20.13
* Source: 마이크(EPOS GSX 30, MICROPHONE (마스), L, volume: 0.800. Timing signal peak level -13.2 dBFS, measurement signal peak level -12.0 dBFS
* Format: 256k Log Swept Sine, 1 sweep at -12.0 dBFS using an acoustic timing reference
* Dated: 2023. 9. 20 오전 12:29:03
* REW Settings:
*  C-weighting compensation: Off
*  Target level: 75.0 dB
* Note: ; Delay -0.0204 ms (-7.0 mm, -0.27 in) using estimated IR delay relative to Acoustic reference played from SPEAKER R with no timing offset
* Measurement: Preinstalled R
* Smoothing: 1/24 octave
* Frequency Step: 1/48 octave
* Start Frequency: 1.000 Hz
*
* Freq(Hz)	SPL(dB)	Phase(degrees)
1.000000	53.495	40.6962
1.015000	53.879	42.5166
1.030000	54.259	44.2455
1.044000	54.608	45.7667
1.060000	54.999	47.3838
1.075000	55.356	48.7705
1.090000	55.701	50.0205
1.106000	56.056	51.1983
1.120000	56.370	52.1376
1.138000	56.782	53.2368
1.150000	57.060	53.9045
1.172000	57.579	54.9999
1.180000	57.769	55.3586
1.206000	58.395	56.3867
1.220000	58.734	56.8574
1.241000	59.245	57.4624
1.250000	59.465	57.6865
1.265000	59.830	58.0158
1.280000	60.195	58.2928
1.315000	61.039	58.7545
1.320000	61.158	58.8011
1.340000	61.632	58.9448
1.360000	62.098	59.0253
1.380000	62.554	59.0509
1.400000	62.999	59.0293
1.430000	63.642	58.9264
1.450000	64.053	58.8222
1.475000	64.542	58.6500
1.500000	65.012	58.3045
1.525000	65.465	57.7755
1.550000	65.903	57.0879
1.575000	66.327	56.2666
1.600000	66.738	55.3367
1.625000	67.137	54.3231
1.650000	67.525	53.2508
1.675000	67.904	52.1446
1.700000	68.275	51.0297
1.725000	68.638	49.9308
1.750000	68.996	48.8731
1.775000	69.349	47.8814
1.800000	69.698	46.9808
1.825000	70.045	46.1961
1.850000	70.389	45.5252
1.875000	70.724	44.9119
1.900000	71.050	44.3464
1.925000	71.369	43.8215
1.950000	71.681	43.3299
1.975000	71.986	42.8643
2.000000	72.285	42.4175
2.030000	72.636	41.8957
2.060000	72.980	41.3779
2.090000	73.318	40.8515
2.120000	73.650	40.3039
2.140000	73.868	39.9209
2.180000	74.300	39.0949
2.200000	74.514	38.6446
2.240000	74.934	37.6863
2.270000	75.240	36.9309
2.300000	75.539	36.1507
2.330000	75.832	35.3517
2.360000	76.120	34.5397
2.400000	76.495	33.4475
2.430000	76.770	32.6288
2.470000	77.131	31.5492
2.500000	77.398	30.7564
2.540000	77.748	29.7329
2.580000	78.094	28.7578
2.620000	78.431	27.8112
2.650000	78.679	27.1148
2.690000	79.003	26.2025
2.720000	79.241	25.5291
2.760000	79.552	24.6438
2.800000	79.858	23.7708
2.850000	80.232	22.6930
2.900000	80.600	21.6260
2.950000	80.961	20.5674
3.000000	81.314	19.5318
3.040000	81.590	18.7190
3.070000	81.793	18.1165
3.110000	82.059	17.3197
3.150000	82.321	16.5274
3.200000	82.643	15.5384
3.250000	82.959	14.5448
3.300000	83.270	13.5400
3.350000	83.574	12.5190
3.400000	83.872	11.4863
3.450000	84.164	10.4496
3.500000	84.449	9.4166
3.550000	84.729	8.3950
3.600000	85.005	7.3925
3.650000	85.275	6.4167
3.700000	85.542	5.4744
3.750000	85.802	4.5631
3.820000	86.159	3.3242
3.870000	86.407	2.4546
3.950000	86.796	1.0678
4.000000	87.034	0.1913
4.060000	87.314	-0.8821
4.120000	87.587	-1.9741
4.180000	87.855	-3.0743
4.250000	88.159	-4.3545
4.310000	88.414	-5.4374
4.370000	88.665	-6.4963
4.440000	88.950	-7.6911
4.500000	89.189	-8.6865
4.550000	89.384	-9.5010
4.620000	89.652	-10.6254
4.680000	89.876	-11.5815
4.750000	90.133	-12.6968
4.820000	90.384	-13.8170
4.870000	90.559	-14.6166
4.940000	90.800	-15.7308
5.000000	91.002	-16.6772
5.080000	91.265	-17.9205
5.150000	91.491	-18.9853
5.220000	91.712	-20.0288
5.300000	91.959	-21.2001
5.380000	92.200	-22.3535
5.450000	92.406	-23.3519
5.520000	92.609	-24.3432
5.600000	92.836	-25.4636
5.700000	93.113	-26.8449
5.800000	93.383	-28.2072
5.900000	93.646	-29.5523
6.000000	93.903	-30.8785
6.080000	94.104	-31.9266
6.150000	94.276	-32.8352
6.220000	94.446	-33.7366
6.300000	94.636	-34.7570
6.400000	94.868	-36.0170
6.500000	95.095	-37.2635
6.600000	95.316	-38.5004
6.700000	95.531	-39.7293
6.800000	95.741	-40.9478
6.900000	95.945	-42.1530
7.000000	96.144	-43.3426
7.100000	96.337	-44.5174
7.200000	96.524	-45.6779
7.300000	96.707	-46.8241
7.400000	96.885	-47.9567
7.500000	97.058	-49.0760
7.620000	97.259	-50.3981
7.750000	97.470	-51.7997
7.880000	97.674	-53.1704
8.000000	97.857	-54.4096
8.120000	98.035	-55.6244
8.250000	98.222	-56.9118
8.380000	98.405	-58.1726
8.500000	98.570	-59.3144
8.620000	98.731	-60.4331
8.750000	98.902	-61.6250
8.850000	99.032	-62.5305
9.000000	99.222	-63.8665
9.120000	99.372	-64.9218
9.250000	99.531	-66.0558
9.380000	99.688	-67.1777
9.500000	99.829	-68.2055
9.620000	99.965	-69.2276
9.750000	100.108	-70.3270
9.880000	100.243	-71.4185
10.000000	100.360	-72.4200
10.150000	100.495	-73.6623
10.300000	100.622	-74.8892
10.440000	100.730	-76.0213
10.600000	100.847	-77.2957
10.750000	100.951	-78.4683
10.900000	101.050	-79.6200
11.060000	101.152	-80.8210
11.200000	101.237	-81.8486
11.380000	101.343	-83.1394
11.500000	101.412	-83.9801
11.720000	101.533	-85.4858
11.800000	101.576	-86.0231
12.060000	101.713	-87.7338
12.200000	101.786	-88.6390
12.410000	101.896	-89.9768
12.500000	101.945	-90.5457
12.650000	102.027	-91.4871
12.800000	102.108	-92.4207
13.150000	102.296	-94.5719
13.200000	102.322	-94.8751
13.400000	102.422	-96.0783
13.600000	102.516	-97.2602
13.800000	102.606	-98.4188
14.000000	102.692	-99.5513
14.300000	102.815	-101.2006
14.500000	102.894	-102.2684
14.750000	102.989	-103.5746
15.000000	103.082	-104.8527
15.250000	103.172	-106.1108
15.500000	103.258	-107.3511
15.750000	103.340	-108.5738
16.000000	103.419	-109.7767
16.250000	103.495	-110.9549
16.500000	103.568	-112.1060
16.750000	103.638	-113.2274
17.000000	103.706	-114.3214
17.250000	103.772	-115.3908
17.500000	103.836	-116.4400
17.750000	103.898	-117.4746
18.000000	103.958	-118.4959
18.250000	104.016	-119.5053
18.500000	104.070	-120.5003
18.750000	104.122	-121.4785
19.000000	104.170	-122.4375
19.250000	104.216	-123.3751
19.500000	104.260	-124.2922
19.750000	104.302	-125.1900
20.000000	104.344	-126.0716
20.299999	104.391	-127.1116
20.600000	104.437	-128.1346
20.900000	104.479	-129.1411
21.200001	104.519	-130.1299
21.400000	104.544	-130.7779
21.799999	104.591	-132.0467
22.000000	104.613	-132.6676
22.400000	104.655	-133.8851
22.700001	104.685	-134.7798
23.000000	104.713	-135.6606
23.299999	104.739	-136.5276
23.600000	104.763	-137.3796
24.000000	104.792	-138.4901
24.299999	104.812	-139.3033
24.700001	104.838	-140.3640
25.000000	104.857	-141.1457
25.400000	104.880	-142.1751
25.799999	104.901	-143.1921
26.200001	104.918	-144.1925
26.500000	104.929	-144.9270
26.900000	104.942	-145.8804
27.200001	104.950	-146.5763
27.600000	104.961	-147.4829
28.000000	104.970	-148.3719
28.500000	104.980	-149.4611
29.000000	104.987	-150.5146
29.500000	104.992	-151.5228
30.000000	104.998	-152.4990
30.400000	105.004	-153.2751
30.700001	105.008	-153.8599
31.100000	105.010	-154.6389
31.500000	105.009	-155.4043
32.000000	105.005	-156.3239
32.500000	105.002	-157.2058
33.000000	104.999	-158.0742
33.500000	104.996	-158.9431
34.000000	104.988	-159.8006
34.500000	104.978	-160.6277
35.000000	104.968	-161.4241
35.500000	104.959	-162.2066
36.000000	104.950	-162.9851
36.500000	104.938	-163.7517
37.000000	104.924	-164.4918
37.500000	104.909	-165.2004
38.200001	104.890	-166.1522
38.700001	104.878	-166.8172
39.500000	104.861	-167.8850
40.000000	104.848	-168.5647
40.599998	104.827	-169.3800
41.200001	104.798	-170.1622
41.799999	104.765	-170.8893
42.500000	104.726	-171.6723
43.099998	104.697	-172.3086
43.700001	104.672	-172.9371
44.400002	104.644	-173.6851
45.000000	104.617	-174.3350
45.500000	104.592	-174.8625
46.200001	104.554	-175.5592
46.799999	104.524	-176.1211
47.500000	104.493	-176.7514
48.200001	104.464	-177.3681
48.700001	104.445	-177.8079
49.400002	104.417	-178.4199
50.000000	104.392	-178.9303
50.799999	104.358	-179.6150
51.500000	104.326	179.7400
52.200001	104.285	179.0831
53.000000	104.232	178.3921
53.799999	104.183	177.7338
54.500000	104.138	177.1450
55.200001	104.088	176.5830
56.000000	104.030	176.0132
57.000000	103.968	175.3534
58.000000	103.912	174.6690
59.000000	103.852	173.9457
60.000000	103.782	173.2266
60.799999	103.722	172.6691
61.500000	103.666	172.2085
62.200001	103.612	171.7830
63.000000	103.558	171.3157
64.000000	103.501	170.7200
65.000000	103.447	170.1253
66.000000	103.394	169.5491
67.000000	103.342	168.9951
68.000000	103.289	168.4641
69.000000	103.234	167.9576
70.000000	103.178	167.4743
71.000000	103.121	167.0132
72.000000	103.065	166.5651
73.000000	103.011	166.1129
74.000000	102.957	165.6478
75.000000	102.901	165.1877
76.199997	102.835	164.6491
77.500000	102.758	164.0950
78.800003	102.683	163.6133
80.000000	102.617	163.1765
81.199997	102.547	162.7529
82.500000	102.473	162.2944
83.800003	102.394	161.8304
85.000000	102.319	161.4358
86.199997	102.246	161.0568
87.500000	102.166	160.6743
88.500000	102.106	160.4052
90.000000	102.020	160.0073
91.199997	101.950	159.6936
92.500000	101.875	159.3755
93.800003	101.803	159.0765
95.000000	101.739	158.8094
96.199997	101.679	158.5429
97.500000	101.614	158.2445
98.800003	101.547	157.9551
100.000000	101.485	157.6988
101.500000	101.406	157.3821
103.000000	101.326	157.0715
104.400002	101.252	156.7700
106.000000	101.164	156.4286
107.500000	101.081	156.1340
109.000000	100.999	155.8725
110.599998	100.915	155.6140
112.000000	100.843	155.3963
113.800003	100.751	155.1148
115.000000	100.688	154.9354
117.199997	100.574	154.6338
118.000000	100.532	154.5324
120.599998	100.395	154.2455
122.000000	100.324	154.1011
124.099998	100.221	153.8841
125.000000	100.180	153.7906
126.500000	100.116	153.6410
128.000000	100.056	153.5058
131.500000	99.921	153.2144
132.000000	99.902	153.1762
134.000000	99.823	153.0334
136.000000	99.745	152.9071
138.000000	99.670	152.8074
140.000000	99.599	152.7194
143.000000	99.495	152.5985
145.000000	99.428	152.5352
147.500000	99.344	152.4778
150.000000	99.263	152.4561
152.500000	99.189	152.4211
155.000000	99.120	152.3419
157.500000	99.051	152.2512
160.000000	98.978	152.1566
162.500000	98.893	152.0532
165.000000	98.801	151.9502
167.500000	98.706	151.8702
170.000000	98.613	151.8191
172.500000	98.519	151.7833
175.000000	98.426	151.7590
177.500000	98.332	151.7631
180.000000	98.240	151.7940
182.500000	98.147	151.8292
185.000000	98.055	151.8809
187.500000	97.967	151.9635
190.000000	97.882	152.0748
192.500000	97.800	152.2061
195.000000	97.720	152.3486
197.500000	97.645	152.4930
200.000000	97.575	152.6483
203.000000	97.496	152.8609
206.000000	97.427	153.0880
209.000000	97.369	153.2987
212.000000	97.321	153.4735
214.000000	97.293	153.5646
218.000000	97.239	153.6740
220.000000	97.209	153.6912
224.000000	97.142	153.6831
227.000000	97.084	153.6676
230.000000	97.021	153.6605
233.000000	96.955	153.6667
236.000000	96.886	153.6949
240.000000	96.795	153.7652
243.000000	96.728	153.8354
247.000000	96.638	153.9630
250.000000	96.569	154.0761
254.000000	96.476	154.2360
258.000000	96.382	154.4098
262.000000	96.289	154.5991
265.000000	96.221	154.7466
269.000000	96.130	154.9457
272.000000	96.063	155.1051
276.000000	95.976	155.3325
280.000000	95.891	155.5686
285.000000	95.785	155.8865
290.000000	95.682	156.2352
295.000000	95.583	156.6049
300.000000	95.488	157.0114
304.000000	95.417	157.3620
307.000000	95.368	157.6327
311.000000	95.309	157.9920
315.000000	95.262	158.3411
320.000000	95.220	158.7531
325.000000	95.184	159.0942
330.000000	95.146	159.3558
335.000000	95.103	159.5905
340.000000	95.055	159.8255
345.000000	95.003	160.0715
350.000000	94.949	160.3443
355.000000	94.894	160.6441
360.000000	94.842	160.9647
365.000000	94.793	161.3034
370.000000	94.747	161.6519
375.000000	94.704	162.0117
382.000000	94.653	162.5121
387.000000	94.619	162.8522
395.000000	94.567	163.3434
400.000000	94.533	163.6295
406.000000	94.494	163.9807
412.000000	94.453	164.3304
418.000000	94.410	164.6690
425.000000	94.361	165.0788
431.000000	94.319	165.4454
437.000000	94.279	165.8182
444.000000	94.234	166.2554
450.000000	94.196	166.6364
455.000000	94.165	166.9589
462.000000	94.124	167.4139
468.000000	94.090	167.7999
475.000000	94.054	168.2496
482.000000	94.020	168.7104
487.000000	93.996	169.0446
494.000000	93.964	169.5068
500.000000	93.939	169.9022
508.000000	93.910	170.4337
515.000000	93.887	170.8927
522.000000	93.865	171.3534
530.000000	93.842	171.8855
538.000000	93.823	172.4164
545.000000	93.807	172.8781
552.000000	93.793	173.3404
560.000000	93.777	173.8677
570.000000	93.759	174.5219
580.000000	93.744	175.1765
590.000000	93.732	175.8410
600.000000	93.722	176.5018
608.000000	93.716	177.0296
615.000000	93.711	177.4924
622.000000	93.710	177.9534
630.000000	93.712	178.4797
640.000000	93.720	179.1420
650.000000	93.733	179.8049
660.000000	93.751	-179.5410
670.000000	93.770	-178.8889
680.000000	93.791	-178.2357
690.000000	93.813	-177.5795
700.000000	93.836	-176.9240
710.000000	93.861	-176.2776
720.000000	93.892	-175.6296
730.000000	93.923	-174.9745
740.000000	93.956	-174.3227
750.000000	93.991	-173.6795
762.000000	94.035	-172.9103
775.000000	94.087	-172.0629
788.000000	94.144	-171.2255
800.000000	94.195	-170.4543
812.000000	94.243	-169.6845
825.000000	94.296	-168.8601
838.000000	94.353	-168.0402
850.000000	94.409	-167.2834
862.000000	94.469	-166.5338
875.000000	94.540	-165.7263
885.000000	94.597	-165.1096
900.000000	94.690	-164.1955
912.000000	94.770	-163.4752
925.000000	94.862	-162.7079
938.000000	94.960	-161.9562
950.000000	95.057	-161.2803
962.000000	95.159	-160.6270
975.000000	95.276	-159.9528
988.000000	95.396	-159.3174
1000.000000	95.502	-158.7728
1015.000000	95.623	-158.1615
1030.000000	95.737	-157.6289
1044.000000	95.843	-157.1962
1060.000000	95.965	-156.7668
1075.000000	96.079	-156.4191
1090.000000	96.191	-156.1195
1106.000000	96.310	-155.8475
1120.000000	96.414	-155.6488
1138.000000	96.547	-155.4455
1150.000000	96.635	-155.3402
1172.000000	96.795	-155.2064
1180.000000	96.853	-155.1752
1206.000000	97.039	-155.1369
1220.000000	97.138	-155.1537
1241.000000	97.290	-155.2241
1250.000000	97.359	-155.2719
1265.000000	97.483	-155.3740
1280.000000	97.612	-155.5024
1315.000000	97.913	-155.8992
1320.000000	97.955	-155.9667
1340.000000	98.123	-156.2619
1360.000000	98.287	-156.5947
1380.000000	98.448	-156.9680
1400.000000	98.607	-157.3775
1430.000000	98.838	-158.0601
1450.000000	98.988	-158.5614
1475.000000	99.171	-159.2412
1500.000000	99.347	-159.9796
1525.000000	99.516	-160.7723
1550.000000	99.678	-161.6190
1575.000000	99.833	-162.5146
1600.000000	99.981	-163.4592
1625.000000	100.125	-164.4520
1650.000000	100.261	-165.4827
1675.000000	100.387	-166.5485
1700.000000	100.502	-167.6468
1725.000000	100.606	-168.7711
1750.000000	100.699	-169.9143
1775.000000	100.780	-171.0695
1800.000000	100.849	-172.2312
1825.000000	100.906	-173.3949
1850.000000	100.951	-174.5535
1875.000000	100.986	-175.6996
1900.000000	101.009	-176.8265
1925.000000	101.021	-177.9272
1950.000000	101.022	-178.9978
1975.000000	101.015	179.9650
2000.000000	101.000	178.9673
2030.000000	100.973	177.8282
2060.000000	100.936	176.7563
2090.000000	100.892	175.7544
2120.000000	100.839	174.8239
2140.000000	100.801	174.2451
2180.000000	100.718	173.1900
2200.000000	100.675	172.7116
2240.000000	100.584	171.8510
2270.000000	100.514	171.2905
2300.000000	100.444	170.8022
2330.000000	100.375	170.3815
2360.000000	100.308	170.0261
2400.000000	100.223	169.6479
2430.000000	100.162	169.4299
2470.000000	100.088	169.2231
2500.000000	100.038	169.1258
2540.000000	99.981	169.0596
2580.000000	99.933	169.0536
2620.000000	99.895	169.0952
2650.000000	99.872	169.1550
2690.000000	99.850	169.2703
2720.000000	99.840	169.3806
2760.000000	99.834	169.5560
2800.000000	99.840	169.7571
2850.000000	99.864	170.0282
2900.000000	99.905	170.3086
2950.000000	99.965	170.5829
3000.000000	100.044	170.8355
3040.000000	100.120	171.0089
3070.000000	100.186	171.1161
3110.000000	100.286	171.2218
3150.000000	100.402	171.2772
3200.000000	100.573	171.2567
3250.000000	100.765	171.1177
3300.000000	100.975	170.8371
3350.000000	101.200	170.3864
3400.000000	101.436	169.7418
3450.000000	101.680	168.8755
3500.000000	101.927	167.7580
3550.000000	102.171	166.3660
3600.000000	102.403	164.6780
3650.000000	102.614	162.6787
3700.000000	102.794	160.3696
3750.000000	102.931	157.7706
3820.000000	103.029	153.7269
3870.000000	103.018	150.6428
3950.000000	102.840	145.6320
4000.000000	102.620	142.6289
4060.000000	102.243	139.3437
4120.000000	101.763	136.5596
4180.000000	101.209	134.4095
4250.000000	100.499	132.8348
4310.000000	99.864	132.3561
4370.000000	99.231	132.7222
4440.000000	98.534	134.2405
4500.000000	98.016	136.4504
4550.000000	97.675	138.8450
4620.000000	97.397	142.7166
4680.000000	97.377	146.0031
4750.000000	97.589	148.9601
4820.000000	97.931	150.2483
4870.000000	98.161	150.0338
4940.000000	98.354	148.5066
5000.000000	98.359	146.6313
5080.000000	98.142	144.2450
5150.000000	97.797	142.8486
5220.000000	97.377	142.3793
5300.000000	96.905	142.9738
5380.000000	96.538	144.2392
5450.000000	96.291	145.2712
5520.000000	96.042	146.1649
5600.000000	95.727	147.3907
5700.000000	95.333	149.5171
5800.000000	94.990	152.1854
5900.000000	94.713	155.2141
6000.000000	94.506	158.4902
6080.000000	94.390	161.2401
6150.000000	94.323	163.7214
6220.000000	94.287	166.2680
6300.000000	94.284	169.2566
6400.000000	94.337	173.0817
6500.000000	94.474	176.9160
6600.000000	94.703	-179.3855
6700.000000	95.018	-175.9703
6800.000000	95.406	-172.9295
6900.000000	95.855	-170.2945
7000.000000	96.359	-168.0675
7100.000000	96.915	-166.2397
7200.000000	97.528	-164.8249
7300.000000	98.204	-163.8898
7400.000000	98.951	-163.5706
7500.000000	99.771	-164.0819
7620.000000	100.831	-166.2408
7750.000000	101.981	-171.2261
7880.000000	102.927	-179.5962
8000.000000	103.384	169.9863
8120.000000	103.283	158.5417
8250.000000	102.550	147.4159
8380.000000	101.355	139.3467
8500.000000	100.062	134.8788
8620.000000	98.754	132.7957
8750.000000	97.424	132.5174
8850.000000	96.493	133.3024
9000.000000	95.256	135.6080
9120.000000	94.393	138.1498
9250.000000	93.570	141.4117
9380.000000	92.853	145.0758
9500.000000	92.282	148.7287
9620.000000	91.797	152.5701
9750.000000	91.368	156.8703
9880.000000	91.041	161.2229
10000.000000	90.826	165.1991
10150.000000	90.663	170.0189
10300.000000	90.601	174.5930
10440.000000	90.624	178.5701
10600.000000	90.744	-177.3332
10750.000000	90.941	-174.0576
10900.000000	91.201	-171.4794
11060.000000	91.507	-169.6374
11200.000000	91.758	-168.8587
11380.000000	91.991	-168.9211
11500.000000	92.059	-169.4373
11720.000000	91.981	-170.5990
11800.000000	91.899	-170.9248
12060.000000	91.499	-171.3399
12200.000000	91.217	-171.0167
12410.000000	90.776	-169.6528
12500.000000	90.603	-168.7741
12650.000000	90.361	-167.0154
12800.000000	90.195	-165.0416
13150.000000	90.156	-160.8131
13200.000000	90.188	-160.3852
13400.000000	90.390	-159.5028
13600.000000	90.637	-160.3633
13800.000000	90.783	-163.2493
14000.000000	90.657	-167.8108
14300.000000	89.737	-175.1863
14500.000000	88.679	-178.3659
14750.000000	87.100	-179.0958
15000.000000	85.504	-176.4305
15250.000000	84.095	-171.2472
15500.000000	82.998	-164.5189
15750.000000	82.275	-157.1035
16000.000000	81.994	-149.8251
16250.000000	82.208	-143.6716
16500.000000	82.785	-139.8621
16750.000000	83.446	-139.5367
17000.000000	83.858	-142.8098
17250.000000	83.802	-148.0858
17500.000000	83.314	-153.2878
17750.000000	82.574	-158.0765
18000.000000	81.593	-163.5909
18250.000000	80.079	-169.0441
18500.000000	77.771	-169.3756
18750.000000	75.060	-160.2582
19000.000000	73.268	-146.9850
19250.000000	72.536	-137.7675
19500.000000	71.754	-130.3883
19750.000000	71.117	-122.7443
